# FP1-F7,F7-T7,T7-P7,P7-O1,--0,FP1-F3,F3-C3,C3-P3,P3-O1,--1,FZ-CZ,CZ-PZ,--2,FP2-F4,F4-C4,C4-P4,P4-O2,--3,FP2-F8,F8-T8,T8-P8-0,P8-O2,--4,P7-T7,T7-FT9,FT9-FT10,FT10-T8,T8-P8-1
1.465201465201465099e-05,6.349206349206348930e-05,7.208791208791209023e-05,-3.848595848595848441e-05,1.953601953601946625e-07,3.067155067155066784e-05,2.715506715506715174e-05,2.949938949938949467e-05,2.324786324786324684e-05,1.953601953601946625e-07,5.841269841269841124e-05,1.894993894993894976e-05,1.953601953601946625e-07,3.731379731379731463e-05,2.637362637362637076e-05,2.285714285714285804e-05,-5.665445665445665488e-06,1.953601953601946625e-07,5.958485958485958101e-05,4.512820512820512443e-05,-1.074481074481074439e-05,-1.191697191697191756e-05,1.953601953601946625e-07,-7.169719169719169127e-05,-5.567765567765567950e-05,6.192918192918192056e-05,2.871794871794871708e-05,-1.074481074481074439e-05
1.387057387057386831e-05,6.388278388278387471e-05,8.302808302808303072e-05,-3.418803418803418394e-05,1.953601953601946625e-07,3.926739926739926877e-05,3.106227106227106002e-05,3.106227106227106002e-05,2.442002442002441662e-05,1.953601953601946625e-07,5.645909645909645710e-05,1.973137973137973074e-05,1.953601953601946625e-07,3.809523809523809222e-05,2.949938949938949467e-05,2.676434676434676294e-05,-1.758241758241758898e-06,1.953601953601946625e-07,5.919413919413918883e-05,5.177045177045177122e-05,-2.930402930402930790e-06,-1.308913308913309072e-05,1.953601953601946625e-07,-8.263736263736263176e-05,-4.043956043956043855e-05,4.981684981684981708e-05,2.871794871794871708e-05,-2.930402930402930790e-06
1.777777777777777660e-05,4.434676434676434683e-05,9.396825396825395766e-05,-2.637362637362637415e-05,1.953601953601946625e-07,4.473748473748473224e-05,3.184371184371184439e-05,2.949938949938949467e-05,2.246642246642246247e-05,1.953601953601946625e-07,4.942612942612942489e-05,1.855921855921855758e-05,1.953601953601946625e-07,3.301587301587300739e-05,2.559218559218558978e-05,2.442002442002441662e-05,4.102564102564101835e-06,1.953601953601946625e-07,5.294261294261293422e-05,9.181929181929180742e-06,3.575091575091575267e-05,-8.009768009768009273e-06,1.953601953601946625e-07,-9.357753357753357225e-05,-4.200244200244200051e-05,5.528693528693528732e-05,-6.056166056166056825e-06,3.575091575091575267e-05
1.582417582417582245e-05,5.567765567765567950e-05,8.420024420024420050e-05,-2.207570207570207368e-05,1.953601953601946625e-07,4.669108669108668638e-05,3.379731379731379853e-05,3.379731379731379853e-05,1.816849816849816539e-05,1.953601953601946625e-07,4.004884004884004637e-05,2.168498168498168149e-05,1.953601953601946625e-07,2.949938949938949467e-05,2.246642246642246247e-05,2.090354090354090390e-05,3.321123321123320433e-06,1.953601953601946625e-07,4.942612942612942489e-05,-9.181929181929182436e-06,5.059829059829059467e-05,-1.113553113553113658e-05,1.953601953601946625e-07,-8.380952380952380154e-05,-5.333333333333333318e-05,5.294261294261293422e-05,-1.699633699633699562e-05,5.059829059829059467e-05
1.465201465201465099e-05,5.411477411477411077e-05,8.263736263736263176e-05,-1.230769230769230805e-05,1.953601953601946625e-07,4.395604395604395465e-05,3.653235653235653026e-05,3.848595848595848441e-05,1.934065934065933856e-05,1.953601953601946625e-07,3.496947496947496153e-05,2.793650793650793610e-05,1.953601953601946625e-07,2.559218559218558978e-05,1.777777777777777660e-05,2.090354090354090390e-05,5.274725274725273304e-06,1.953601953601946625e-07,4.864468864468864053e-05,-1.777777777777777660e-05,5.020757020757020249e-05,-8.009768009768009273e-06,1.953601953601946625e-07,-8.224664224664224635e-05,-3.614163614163613808e-05,4.512820512820512443e-05,-2.910866910866910588e-05,5.020757020757020249e-05
1.660561660561660343e-05,6.192918192918192056e-05,6.544566544566544344e-05,1.953601953601946625e-07,1.953601953601946625e-07,3.809523809523809222e-05,4.004884004884004637e-05,4.278388278388277810e-05,2.207570207570207368e-05,1.953601953601946625e-07,3.262515262515262198e-05,3.536019536019536049e-05,1.953601953601946625e-07,1.934065934065933856e-05,1.308913308913308903e-05,1.894993894993894976e-05,1.230769230769230635e-05,1.953601953601946625e-07,4.434676434676434683e-05,-2.363858363858363902e-05,4.317460317460317028e-05,2.148962148962148540e-06,1.953601953601946625e-07,-6.505494505494504448e-05,-4.161172161172160832e-05,3.887667887667886981e-05,-3.418803418803418394e-05,4.317460317460317028e-05
1.699633699633699562e-05,8.380952380952380154e-05,3.965811965811965418e-05,8.009768009768009273e-06,1.953601953601946625e-07,3.614163614163613808e-05,4.434676434676434683e-05,4.669108669108668638e-05,2.051282051282051172e-05,1.953601953601946625e-07,3.145299145299145221e-05,3.692307692307691567e-05,1.953601953601946625e-07,1.465201465201465099e-05,8.791208791208790252e-06,1.738705738705738441e-05,1.504273504273504148e-05,1.953601953601946625e-07,4.122100122100122292e-05,-1.894993894993894976e-05,2.910866910866910588e-05,6.056166056166055131e-06,1.953601953601946625e-07,-3.926739926739926877e-05,-6.622710622710622781e-05,3.575091575091575267e-05,-1.894993894993894976e-05,2.910866910866910588e-05
1.738705738705738441e-05,7.247863247863247564e-05,4.395604395604395465e-05,1.230769230769230635e-05,1.953601953601946625e-07,3.301587301587300739e-05,4.786324786324786294e-05,4.825396825396824834e-05,1.699633699633699562e-05,1.953601953601946625e-07,3.106227106227106002e-05,3.887667887667886981e-05,1.953601953601946625e-07,2.012210012210011953e-05,6.446886446886445620e-06,2.051282051282051172e-05,9.963369963369963416e-06,1.953601953601946625e-07,4.356532356532356247e-05,-2.285714285714285804e-05,3.379731379731379853e-05,5.274725274725273304e-06,1.953601953601946625e-07,-4.356532356532356247e-05,-4.747252747252747075e-05,3.184371184371184439e-05,-2.715506715506715174e-05,3.379731379731379853e-05
1.347985347985347952e-05,6.661782661782661322e-05,4.200244200244200051e-05,1.973137973137973074e-05,1.953601953601946625e-07,2.871794871794871708e-05,4.981684981684981708e-05,4.200244200244200051e-05,2.090354090354090390e-05,1.953601953601946625e-07,2.871794871794871708e-05,4.473748473748473224e-05,1.953601953601946625e-07,2.090354090354090390e-05,9.572649572649571232e-06,2.012210012210011953e-05,9.572649572649571232e-06,1.953601953601946625e-07,3.926739926739926877e-05,-2.090354090354090390e-05,2.871794871794871708e-05,1.504273504273504148e-05,1.953601953601946625e-07,-4.161172161172160832e-05,-4.083028083028083073e-05,2.012210012210011953e-05,-2.207570207570207368e-05,2.871794871794871708e-05
1.113553113553113488e-05,6.700854700854701218e-05,3.887667887667886981e-05,2.012210012210011953e-05,1.953601953601946625e-07,3.028083028083027904e-05,4.747252747252747075e-05,4.004884004884004637e-05,1.973137973137973074e-05,1.953601953601946625e-07,2.363858363858363564e-05,4.864468864468864053e-05,1.953601953601946625e-07,1.621489621489621464e-05,9.963369963369963416e-06,2.520146520146520098e-05,8.400488400488398069e-06,1.953601953601946625e-07,3.067155067155066784e-05,1.953601953601946625e-07,1.738705738705738441e-05,1.269841269841269684e-05,1.953601953601946625e-07,-3.848595848595848441e-05,-5.098901098901099363e-05,2.168498168498168149e-05,5.860805860805853110e-07,1.738705738705738441e-05
1.035409035409035221e-05,5.255189255189254881e-05,4.903540903540903271e-05,2.012210012210011953e-05,1.953601953601946625e-07,3.340659340659340635e-05,4.278388278388277810e-05,3.614163614163613808e-05,1.894993894993894976e-05,1.953601953601946625e-07,1.582417582417582245e-05,4.630036630036629420e-05,1.953601953601946625e-07,1.738705738705738441e-05,6.446886446886445620e-06,2.793650793650793610e-05,8.009768009768009273e-06,1.953601953601946625e-07,2.754578754578754392e-05,2.148962148962148540e-06,2.481074481074480880e-05,6.446886446886445620e-06,1.953601953601946625e-07,-4.864468864468864053e-05,-3.340659340659340635e-05,1.269841269841269684e-05,5.665445665445664641e-06,2.481074481074480880e-05
5.274725274725273304e-06,4.161172161172160832e-05,5.606837606837606491e-05,2.402930402930402782e-05,1.953601953601946625e-07,3.262515262515262198e-05,3.770451770451770682e-05,3.418803418803418394e-05,2.207570207570207368e-05,1.953601953601946625e-07,8.400488400488398069e-06,4.551892551892551661e-05,1.953601953601946625e-07,3.321123321123320433e-06,9.572649572649571232e-06,3.809523809523809222e-05,4.493284493284492325e-06,1.953601953601946625e-07,1.269841269841269684e-05,4.981684981684981708e-05,-8.791208791208791947e-06,3.711843711843710922e-06,1.953601953601946625e-07,-5.567765567765567950e-05,-1.504273504273504148e-05,1.230769230769230635e-05,3.848595848595848441e-05,-8.791208791208791947e-06
1.758241758241757415e-06,3.653235653235653026e-05,4.395604395604395465e-05,3.926739926739926877e-05,1.953601953601946625e-07,3.809523809523809222e-05,2.715506715506715174e-05,2.793650793650793610e-05,2.793650793650793610e-05,1.953601953601946625e-07,9.768009768009760124e-07,3.770451770451770682e-05,1.953601953601946625e-07,-3.711843711843712193e-06,5.860805860805853110e-07,3.809523809523809222e-05,1.113553113553113488e-05,1.953601953601946625e-07,9.768009768009760124e-07,3.028083028083027904e-05,9.768009768009760124e-07,1.465201465201465099e-05,1.953601953601946625e-07,-4.356532356532356247e-05,-2.168498168498168488e-05,1.308913308913308903e-05,2.949938949938949467e-05,9.768009768009760124e-07
2.148962148962148540e-06,3.067155067155066784e-05,3.731379731379731463e-05,4.356532356532356247e-05,1.953601953601946625e-07,4.395604395604395465e-05,2.051282051282051172e-05,2.559218559218558978e-05,2.285714285714285804e-05,1.953601953601946625e-07,-6.837606837606837804e-06,2.559218559218558978e-05,1.953601953601946625e-07,1.953601953601946625e-07,-2.930402930402930790e-06,3.106227106227106002e-05,7.228327228327227447e-06,1.953601953601946625e-07,-6.446886446886447315e-06,-6.446886446886447315e-06,3.379731379731379853e-05,1.621489621489621464e-05,1.953601953601946625e-07,-3.692307692307692245e-05,-1.894993894993894976e-05,1.113553113553113488e-05,1.367521367521366926e-06,3.379731379731379853e-05
1.953601953601946625e-07,4.083028083028082396e-05,1.230769230769230635e-05,5.489621489621488836e-05,1.953601953601946625e-07,4.356532356532356247e-05,1.738705738705738441e-05,2.207570207570207368e-05,2.481074481074480880e-05,1.953601953601946625e-07,-1.191697191697191756e-05,1.387057387057386831e-05,1.953601953601946625e-07,4.102564102564101835e-06,-9.181929181929182436e-06,2.598290598290598196e-05,6.446886446886445620e-06,1.953601953601946625e-07,-1.777777777777777660e-05,-1.777777777777777660e-05,4.395604395604395465e-05,2.129426129426129270e-05,1.953601953601946625e-07,-1.191697191697191756e-05,-1.621489621489621464e-05,1.758241758241757415e-06,-1.465201465201465268e-05,4.395604395604395465e-05
2.148962148962148540e-06,5.841269841269841124e-05,-2.442002442002442000e-05,6.974358974358973713e-05,1.953601953601946625e-07,4.864468864468864053e-05,1.035409035409035221e-05,1.777777777777777660e-05,2.754578754578754392e-05,1.953601953601946625e-07,-1.738705738705738780e-05,8.009768009768009273e-06,1.953601953601946625e-07,1.230769230769230635e-05,-1.777777777777777660e-05,1.816849816849816539e-05,1.230769230769230635e-05,1.953601953601946625e-07,-1.777777777777777660e-05,-2.559218559218559317e-05,3.965811965811965418e-05,3.028083028083027904e-05,1.953601953601946625e-07,2.481074481074480880e-05,-2.949938949938950145e-05,-8.009768009768009273e-06,-1.347985347985347952e-05,3.965811965811965418e-05
9.963369963369963416e-06,5.528693528693528732e-05,-2.989010989010989025e-05,6.505494505494504448e-05,1.953601953601946625e-07,5.372405372405372536e-05,6.056166056166055131e-06,1.426129426129426050e-05,2.520146520146520098e-05,1.953601953601946625e-07,-2.363858363858363902e-05,3.711843711843710922e-06,1.953601953601946625e-07,1.660561660561660343e-05,-1.973137973137973074e-05,1.191697191697191417e-05,1.308913308913308903e-05,1.953601953601946625e-07,-1.582417582417582245e-05,-2.324786324786324684e-05,3.653235653235653026e-05,2.637362637362637076e-05,1.953601953601946625e-07,3.028083028083027904e-05,-3.262515262515262198e-05,-1.113553113553113658e-05,-5.274725274725274999e-06,3.653235653235653026e-05
1.113553113553113488e-05,4.200244200244200051e-05,-1.308913308913309072e-05,5.059829059829059467e-05,1.953601953601946625e-07,5.489621489621488836e-05,4.493284493284492325e-06,1.152625152625152537e-05,1.894993894993894976e-05,1.953601953601946625e-07,-2.793650793650793610e-05,5.860805860805853110e-07,1.953601953601946625e-07,1.855921855921855758e-05,-2.402930402930402782e-05,1.738705738705738441e-05,7.619047619047617936e-06,1.953601953601946625e-07,-1.113553113553113658e-05,-1.191697191697191756e-05,2.793650793650793610e-05,1.660561660561660343e-05,1.953601953601946625e-07,1.347985347985347952e-05,-7.228327228327229141e-06,-1.191697191697191756e-05,-4.102564102564102683e-06,2.793650793650793610e-05
1.465201465201465099e-05,3.145299145299145221e-05,-1.074481074481074439e-05,4.747252747252747075e-05,1.953601953601946625e-07,5.802197802197801905e-05,1.758241758241757415e-06,6.056166056166055131e-06,1.543345543345543027e-05,1.953601953601946625e-07,-2.754578754578754731e-05,-1.758241758241758898e-06,1.953601953601946625e-07,1.621489621489621464e-05,-2.793650793650793610e-05,1.973137973137973074e-05,5.274725274725273304e-06,1.953601953601946625e-07,-9.572649572649572926e-06,2.148962148962148540e-06,9.181929181929180742e-06,1.308913308913308903e-05,1.953601953601946625e-07,1.113553113553113488e-05,5.860805860805853110e-07,9.768009768009760124e-07,-4.102564102564102683e-06,9.181929181929180742e-06
1.543345543345543027e-05,2.598290598290598196e-05,-1.035409035409035391e-05,4.161172161172160832e-05,1.953601953601946625e-07,5.684981684981684250e-05,3.711843711843710922e-06,3.321123321123320433e-06,8.009768009768009273e-06,1.953601953601946625e-07,-2.676434676434676294e-05,-3.711843711843712193e-06,1.953601953601946625e-07,1.426129426129426050e-05,-2.442002442002442000e-05,1.621489621489621464e-05,6.446886446886445620e-06,1.953601953601946625e-07,-4.884004884004884509e-06,-4.102564102564102683e-06,6.056166056166055131e-06,1.738705738705738441e-05,1.953601953601946625e-07,1.074481074481074270e-05,-9.181929181929182436e-06,1.113553113553113488e-05,-5.274725274725274999e-06,6.056166056166055131e-06
1.621489621489621464e-05,2.832722832722832490e-05,-1.035409035409035391e-05,3.731379731379731463e-05,1.953601953601946625e-07,5.567765567765567950e-05,1.113553113553113488e-05,5.665445665445664641e-06,-2.148962148962149811e-06,1.953601953601946625e-07,-2.363858363858363902e-05,-3.321123321123321703e-06,1.953601953601946625e-07,1.308913308913308903e-05,-2.559218559218559317e-05,1.973137973137973074e-05,4.493284493284492325e-06,1.953601953601946625e-07,-1.367521367521368196e-06,-5.274725274725274999e-06,4.102564102564101835e-06,1.582417582417582245e-05,1.953601953601946625e-07,1.074481074481074270e-05,-1.347985347985347952e-05,2.051282051282051172e-05,-8.400488400488399763e-06,4.102564102564101835e-06
2.363858363858363564e-05,4.903540903540903271e-05,-3.145299145299145221e-05,3.848595848595848441e-05,1.953601953601946625e-07,5.294261294261293422e-05,1.934065934065933856e-05,1.152625152625152537e-05,-4.102564102564102683e-06,1.953601953601946625e-07,-1.504273504273504148e-05,2.930402930402929519e-06,1.953601953601946625e-07,1.113553113553113488e-05,-2.090354090354090390e-05,2.207570207570207368e-05,7.619047619047617936e-06,1.953601953601946625e-07,-1.953601953601960389e-07,-5.860805860805867933e-07,-9.768009768009774947e-07,2.363858363858363564e-05,1.953601953601946625e-07,3.184371184371184439e-05,-2.246642246642246586e-05,9.572649572649571232e-06,-1.504273504273504148e-05,-9.768009768009774947e-07
3.223443223443222980e-05,5.841269841269841124e-05,-4.434676434676434683e-05,4.434676434676434683e-05,1.953601953601946625e-07,5.411477411477411077e-05,2.598290598290598196e-05,1.152625152625152537e-05,-1.367521367521368196e-06,1.953601953601946625e-07,-8.400488400488399763e-06,7.619047619047617936e-06,1.953601953601946625e-07,1.347985347985347952e-05,-1.621489621489621464e-05,2.051282051282051172e-05,1.465201465201465099e-05,1.953601953601946625e-07,8.791208791208790252e-06,1.230769230769230635e-05,-2.520146520146520098e-05,3.809523809523809222e-05,1.953601953601946625e-07,4.473748473748473224e-05,-3.536019536019536049e-05,1.953601953601946625e-07,7.228327228327227447e-06,-2.520146520146520098e-05
4.317460317460317028e-05,5.372405372405372536e-05,-4.903540903540903949e-05,4.004884004884004637e-05,1.953601953601946625e-07,5.567765567765567950e-05,2.754578754578754392e-05,1.074481074481074270e-05,-6.837606837606837804e-06,1.953601953601946625e-07,-4.884004884004884509e-06,6.056166056166055131e-06,1.953601953601946625e-07,1.347985347985347952e-05,-1.777777777777777660e-05,2.402930402930402782e-05,1.308913308913308903e-05,1.953601953601946625e-07,1.465201465201465099e-05,1.191697191697191417e-05,-2.871794871794871708e-05,3.536019536019536049e-05,1.953601953601946625e-07,4.942612942612942489e-05,-3.223443223443222980e-05,-7.228327228327229141e-06,7.619047619047617936e-06,-2.871794871794871708e-05
5.216117216117215663e-05,5.255189255189254881e-05,-6.192918192918192056e-05,3.262515262515262198e-05,1.953601953601946625e-07,5.489621489621488836e-05,2.442002442002441662e-05,7.619047619047617936e-06,-1.191697191697191756e-05,1.953601953601946625e-07,-5.860805860805867933e-07,4.493284493284492325e-06,1.953601953601946625e-07,1.582417582417582245e-05,-1.347985347985347952e-05,2.285714285714285804e-05,2.148962148962148540e-06,1.953601953601946625e-07,2.051282051282051172e-05,9.181929181929180742e-06,-3.262515262515262198e-05,3.145299145299145221e-05,1.953601953601946625e-07,6.231990231990231952e-05,-2.246642246642246586e-05,-1.855921855921856096e-05,-2.148962148962149811e-06,-3.262515262515262198e-05
5.450549450549450295e-05,5.177045177045177122e-05,-8.302808302808303072e-05,3.692307692307691567e-05,1.953601953601946625e-07,5.489621489621488836e-05,1.777777777777777660e-05,-4.102564102564102683e-06,-8.009768009768009273e-06,1.953601953601946625e-07,1.953601953601946625e-07,5.860805860805853110e-07,1.953601953601946625e-07,2.481074481074480880e-05,-1.934065934065934194e-05,1.934065934065933856e-05,1.953601953601946625e-07,1.953601953601946625e-07,2.207570207570207368e-05,1.191697191697191417e-05,-4.473748473748473224e-05,3.496947496947496153e-05,1.953601953601946625e-07,8.341880341880341613e-05,-3.301587301587302094e-05,-1.816849816849816539e-05,2.539682539682539030e-06,-4.473748473748473224e-05
5.645909645909645710e-05,4.317460317460317028e-05,-9.435897435897435662e-05,2.910866910866910588e-05,1.953601953601946625e-07,5.411477411477411077e-05,9.572649572649571232e-06,-1.152625152625152537e-05,-1.699633699633699562e-05,1.953601953601946625e-07,-1.758241758241758898e-06,-6.446886446886447315e-06,1.953601953601946625e-07,1.855921855921855758e-05,-1.074481074481074439e-05,1.347985347985347952e-05,-7.228327228327229141e-06,1.953601953601946625e-07,2.442002442002441662e-05,1.367521367521366926e-06,-4.004884004884004637e-05,2.793650793650793610e-05,1.953601953601946625e-07,9.474969474969475558e-05,-3.223443223443222980e-05,-2.285714285714285804e-05,-9.768009768009774947e-07,-4.004884004884004637e-05
5.724053724053724146e-05,4.278388278388277810e-05,-1.006105006105006045e-04,1.894993894993894976e-05,1.953601953601946625e-07,5.372405372405372536e-05,4.884004884004883662e-06,-1.426129426129426219e-05,-2.520146520146520098e-05,1.953601953601946625e-07,-1.367521367521368196e-06,-1.582417582417582245e-05,1.953601953601946625e-07,1.465201465201465099e-05,-7.228327228327229141e-06,1.113553113553113488e-05,-1.113553113553113658e-05,1.953601953601946625e-07,2.481074481074480880e-05,-1.543345543345543366e-05,-2.285714285714285804e-05,2.168498168498168149e-05,1.953601953601946625e-07,1.010012210012209899e-04,-2.676434676434676294e-05,-2.871794871794871708e-05,-2.168498168498168488e-05,-2.285714285714285804e-05
5.489621489621488836e-05,3.028083028083027904e-05,-9.240537240537240247e-05,1.816849816849816539e-05,1.953601953601946625e-07,4.864468864468864053e-05,5.274725274725273304e-06,-1.855921855921856096e-05,-2.324786324786324684e-05,1.953601953601946625e-07,-1.953601953601960389e-07,-1.699633699633699562e-05,1.953601953601946625e-07,2.012210012210011953e-05,-7.228327228327229141e-06,9.572649572649571232e-06,-9.181929181929182436e-06,1.953601953601946625e-07,2.754578754578754392e-05,-2.090354090354090390e-05,-1.387057387057387001e-05,2.090354090354090390e-05,1.953601953601946625e-07,9.279609279609278788e-05,-9.572649572649572926e-06,-3.145299145299145221e-05,-3.614163614163613808e-05,-1.387057387057387001e-05
5.724053724053724146e-05,1.074481074481074270e-05,-8.459096459096458590e-05,1.777777777777777660e-05,1.953601953601946625e-07,4.434676434676434683e-05,5.665445665445664641e-06,-2.324786324786324684e-05,-2.520146520146520098e-05,1.953601953601946625e-07,1.758241758241757415e-06,-2.090354090354090390e-05,1.953601953601946625e-07,1.465201465201465099e-05,1.953601953601946625e-07,6.446886446886445620e-06,-1.308913308913309072e-05,1.953601953601946625e-07,2.598290598290598196e-05,-1.816849816849816539e-05,-1.582417582417582245e-05,1.738705738705738441e-05,1.953601953601946625e-07,8.498168498168497131e-05,5.860805860805853110e-07,-4.043956043956043855e-05,-2.793650793650793610e-05,-1.582417582417582245e-05
5.724053724053724146e-05,6.446886446886445620e-06,-8.380952380952380154e-05,1.426129426129426050e-05,1.953601953601946625e-07,4.043956043956043855e-05,9.572649572649571232e-06,-2.481074481074480880e-05,-3.106227106227106002e-05,1.953601953601946625e-07,4.884004884004883662e-06,-2.363858363858363902e-05,1.953601953601946625e-07,2.051282051282051172e-05,-4.102564102564102683e-06,1.074481074481074270e-05,-1.973137973137973074e-05,1.953601953601946625e-07,2.910866910866910588e-05,-1.934065934065934194e-05,-9.572649572649572926e-06,8.009768009768009273e-06,1.953601953601946625e-07,8.420024420024420050e-05,1.953601953601946625e-07,-3.536019536019536049e-05,-2.989010989010989025e-05,-9.572649572649572926e-06
5.528693528693528732e-05,5.860805860805853110e-07,-8.615384615384615464e-05,2.207570207570207368e-05,1.953601953601946625e-07,3.614163614163613808e-05,1.191697191697191417e-05,-2.676434676434676294e-05,-2.910866910866910588e-05,1.953601953601946625e-07,1.074481074481074270e-05,-2.012210012210011953e-05,1.953601953601946625e-07,2.910866910866910588e-05,-5.860805860805867933e-07,2.539682539682539030e-06,-1.894993894993894976e-05,1.953601953601946625e-07,2.598290598290598196e-05,-1.973137973137973074e-05,2.539682539682539030e-06,2.539682539682539030e-06,1.953601953601946625e-07,8.654456654456654005e-05,5.665445665445664641e-06,-2.949938949938950145e-05,-4.043956043956043855e-05,2.539682539682539030e-06
5.450549450549450295e-05,-1.308913308913309072e-05,-8.732600732600732441e-05,3.106227106227106002e-05,1.953601953601946625e-07,3.145299145299145221e-05,1.152625152625152537e-05,-2.871794871794871708e-05,-2.949938949938950145e-05,1.953601953601946625e-07,1.543345543345543027e-05,-1.621489621489621464e-05,1.953601953601946625e-07,2.637362637362637076e-05,2.539682539682539030e-06,-5.274725274725274999e-06,-1.699633699633699562e-05,1.953601953601946625e-07,2.168498168498168149e-05,-1.230769230769230805e-05,-2.539682539682540300e-06,5.860805860805853110e-07,1.953601953601946625e-07,8.771672771672770982e-05,8.009768009768009273e-06,-2.637362637362637415e-05,-2.910866910866910588e-05,-2.539682539682540300e-06
5.450549450549450295e-05,-1.347985347985347952e-05,-9.240537240537240247e-05,3.379731379731379853e-05,1.953601953601946625e-07,3.301587301587300739e-05,1.230769230769230635e-05,-2.949938949938950145e-05,-3.418803418803418394e-05,1.953601953601946625e-07,1.660561660561660343e-05,-1.230769230769230805e-05,1.953601953601946625e-07,2.051282051282051172e-05,9.768009768009760124e-07,-9.768009768009774947e-07,-1.660561660561660682e-05,1.953601953601946625e-07,2.129426129426129270e-05,-2.148962148962149811e-06,-6.056166056166056825e-06,-9.572649572649572926e-06,1.953601953601946625e-07,9.279609279609278788e-05,-2.539682539682540300e-06,-1.582417582417582245e-05,-1.191697191697191756e-05,-6.056166056166056825e-06
4.981684981684981708e-05,-1.621489621489621464e-05,-8.615384615384615464e-05,3.223443223443222980e-05,1.953601953601946625e-07,3.223443223443222980e-05,1.074481074481074270e-05,-2.793650793650793610e-05,-3.575091575091575267e-05,1.953601953601946625e-07,1.621489621489621464e-05,-9.572649572649572926e-06,1.953601953601946625e-07,1.543345543345543027e-05,-1.953601953601960389e-07,2.930402930402929519e-06,-1.855921855921856096e-05,1.953601953601946625e-07,2.090354090354090390e-05,1.308913308913308903e-05,-1.465201465201465268e-05,-1.894993894993894976e-05,1.953601953601946625e-07,8.654456654456654005e-05,4.884004884004883662e-06,-2.930402930402930790e-06,-5.274725274725274999e-06,-1.465201465201465268e-05
4.669108669108668638e-05,-4.122100122100122292e-05,-6.583638583638584240e-05,3.262515262515262198e-05,1.953601953601946625e-07,2.832722832722832490e-05,2.539682539682539030e-06,-2.832722832722832829e-05,-3.028083028083027904e-05,1.953601953601946625e-07,1.308913308913308903e-05,-9.572649572649572926e-06,1.953601953601946625e-07,9.963369963369963416e-06,-9.572649572649572926e-06,1.758241758241757415e-06,-9.963369963369963416e-06,1.953601953601946625e-07,2.285714285714285804e-05,2.871794871794871708e-05,-4.278388278388277810e-05,-1.543345543345543366e-05,1.953601953601946625e-07,6.622710622710622781e-05,2.246642246642246247e-05,7.619047619047617936e-06,1.347985347985347952e-05,-4.278388278388277810e-05
3.731379731379731463e-05,-3.770451770451770682e-05,-6.036630036630036538e-05,3.028083028083027904e-05,1.953601953601946625e-07,2.949938949938949467e-05,2.930402930402929519e-06,-3.184371184371184439e-05,-3.028083028083027904e-05,1.953601953601946625e-07,6.446886446886445620e-06,-1.074481074481074439e-05,1.953601953601946625e-07,2.539682539682539030e-06,-2.090354090354090390e-05,7.228327228327227447e-06,-5.665445665445665488e-06,1.953601953601946625e-07,1.973137973137973074e-05,5.059829059829059467e-05,-7.130647130647130587e-05,-1.465201465201465268e-05,1.953601953601946625e-07,6.075702075702075079e-05,9.181929181929180742e-06,1.191697191697191417e-05,5.216117216117215663e-05,-7.130647130647130587e-05
3.340659340659340635e-05,-2.402930402930402782e-05,-6.466422466422465907e-05,2.481074481074480880e-05,1.953601953601946625e-07,3.340659340659340635e-05,2.930402930402929519e-06,-3.262515262515262198e-05,-3.418803418803418394e-05,1.953601953601946625e-07,2.930402930402929519e-06,-1.426129426129426219e-05,1.953601953601946625e-07,6.056166056166055131e-06,-2.285714285714285804e-05,4.493284493284492325e-06,-8.791208791208791947e-06,1.953601953601946625e-07,1.152625152625152537e-05,2.793650793650793610e-05,-4.981684981684981708e-05,-1.113553113553113658e-05,1.953601953601946625e-07,6.505494505494504448e-05,-1.035409035409035391e-05,1.934065934065933856e-05,3.184371184371184439e-05,-4.981684981684981708e-05
2.246642246642246247e-05,-4.747252747252747075e-05,-3.653235653235653026e-05,2.871794871794871708e-05,1.953601953601946625e-07,3.028083028083027904e-05,1.367521367521366926e-06,-3.418803418803418394e-05,-2.949938949938950145e-05,1.953601953601946625e-07,-5.860805860805867933e-07,-1.465201465201465268e-05,1.953601953601946625e-07,4.102564102564101835e-06,-2.442002442002442000e-05,-3.321123321123321703e-06,-1.035409035409035391e-05,1.953601953601946625e-07,1.953601953601946625e-07,-1.230769230769230805e-05,-1.934065934065934194e-05,-1.953601953601960389e-07,1.953601953601946625e-07,3.692307692307691567e-05,1.269841269841269684e-05,1.660561660561660343e-05,-3.321123321123321703e-06,-1.934065934065934194e-05
1.660561660561660343e-05,-3.848595848595848441e-05,-4.942612942612942489e-05,4.043956043956043855e-05,1.953601953601946625e-07,3.536019536019536049e-05,-1.953601953601960389e-07,-3.692307692307692245e-05,-2.910866910866910588e-05,1.953601953601946625e-07,-4.102564102564102683e-06,-1.465201465201465268e-05,1.953601953601946625e-07,2.148962148962148540e-06,-1.934065934065934194e-05,-9.181929181929182436e-06,-1.426129426129426219e-05,1.953601953601946625e-07,-1.035409035409035391e-05,-3.887667887667887659e-05,4.102564102564101835e-06,3.321123321123320433e-06,1.953601953601946625e-07,4.981684981684981708e-05,1.758241758241757415e-06,1.387057387057386831e-05,-2.402930402930402782e-05,4.102564102564101835e-06
1.465201465201465099e-05,-3.340659340659340635e-05,-5.645909645909645710e-05,4.200244200244200051e-05,1.953601953601946625e-07,4.083028083028082396e-05,-4.493284493284494019e-06,-3.536019536019536049e-05,-3.340659340659340635e-05,1.953601953601946625e-07,-8.791208791208791947e-06,-2.012210012210011953e-05,1.953601953601946625e-07,6.837606837606836957e-06,-1.504273504273504148e-05,-1.269841269841269854e-05,-2.559218559218559317e-05,1.953601953601946625e-07,-1.543345543345543366e-05,-3.340659340659340635e-05,8.009768009768009273e-06,-4.493284493284494019e-06,1.953601953601946625e-07,5.684981684981684250e-05,-3.711843711843712193e-06,1.543345543345543027e-05,-2.207570207570207368e-05,8.009768009768009273e-06
7.228327228327227447e-06,-5.216117216117215663e-05,-3.614163614163613808e-05,4.200244200244200051e-05,1.953601953601946625e-07,3.926739926739926877e-05,-1.269841269841269854e-05,-3.106227106227106002e-05,-3.340659340659340635e-05,1.953601953601946625e-07,-1.543345543345543366e-05,-2.285714285714285804e-05,1.953601953601946625e-07,1.660561660561660343e-05,-1.582417582417582245e-05,-1.269841269841269854e-05,-3.379731379731379853e-05,1.953601953601946625e-07,-1.543345543345543366e-05,-3.340659340659340635e-05,1.582417582417582245e-05,-1.152625152625152537e-05,1.953601953601946625e-07,3.653235653235653026e-05,2.442002442002441662e-05,1.347985347985347952e-05,-2.910866910866910588e-05,1.582417582417582245e-05
2.539682539682539030e-06,-6.192918192918192056e-05,-2.793650793650793610e-05,4.630036630036629420e-05,1.953601953601946625e-07,4.317460317460317028e-05,-2.324786324786324684e-05,-2.989010989010989025e-05,-2.989010989010989025e-05,1.953601953601946625e-07,-2.402930402930402782e-05,-1.738705738705738780e-05,1.953601953601946625e-07,1.894993894993894976e-05,-1.934065934065934194e-05,-1.074481074481074439e-05,-3.223443223443222980e-05,1.953601953601946625e-07,-1.543345543345543366e-05,-2.832722832722832829e-05,9.572649572649571232e-06,-8.791208791208791947e-06,1.953601953601946625e-07,2.832722832722832490e-05,2.442002442002441662e-05,1.934065934065933856e-05,-1.973137973137973074e-05,9.572649572649571232e-06
-2.148962148962149811e-06,-4.356532356532356247e-05,-4.004884004884004637e-05,3.809523809523809222e-05,1.953601953601946625e-07,4.317460317460317028e-05,-2.520146520146520098e-05,-3.418803418803418394e-05,-3.067155067155067461e-05,1.953601953601946625e-07,-3.614163614163613808e-05,-1.582417582417582245e-05,1.953601953601946625e-07,1.934065934065933856e-05,-2.598290598290598196e-05,-7.619047619047618784e-06,-3.067155067155067461e-05,1.953601953601946625e-07,-2.129426129426129270e-05,-8.791208791208791947e-06,-1.367521367521368196e-06,-1.191697191697191756e-05,1.953601953601946625e-07,4.043956043956043855e-05,-4.493284493284494019e-06,1.855921855921855758e-05,6.446886446886445620e-06,-1.367521367521368196e-06
-5.274725274725274999e-06,-4.825396825396824834e-05,-2.793650793650793610e-05,2.715506715506715174e-05,1.953601953601946625e-07,3.926739926739926877e-05,-2.793650793650793610e-05,-3.340659340659340635e-05,-3.223443223443222980e-05,1.953601953601946625e-07,-4.473748473748473224e-05,-1.582417582417582245e-05,1.953601953601946625e-07,1.855921855921855758e-05,-3.067155067155067461e-05,-7.228327228327229141e-06,-2.832722832722832829e-05,1.953601953601946625e-07,-2.207570207570207368e-05,-2.051282051282051511e-05,1.191697191697191417e-05,-1.582417582417582245e-05,1.953601953601946625e-07,2.832722832722832490e-05,1.953601953601946625e-07,2.012210012210011953e-05,-4.884004884004884509e-06,1.191697191697191417e-05
-1.308913308913309072e-05,-4.630036630036629420e-05,-2.832722832722832829e-05,3.223443223443222980e-05,1.953601953601946625e-07,3.301587301587300739e-05,-3.340659340659340635e-05,-3.457875457875457612e-05,-1.973137973137973074e-05,1.953601953601946625e-07,-5.059829059829059467e-05,-9.181929181929182436e-06,1.953601953601946625e-07,2.930402930402929519e-06,-2.324786324786324684e-05,-1.152625152625152537e-05,-1.621489621489621464e-05,1.953601953601946625e-07,-2.559218559218559317e-05,-3.536019536019536049e-05,1.973137973137973074e-05,-6.446886446886447315e-06,1.953601953601946625e-07,2.871794871794871708e-05,3.711843711843710922e-06,1.426129426129426050e-05,-1.621489621489621464e-05,1.973137973137973074e-05
-8.791208791208791947e-06,-3.262515262515262198e-05,-4.551892551892551661e-05,2.715506715506715174e-05,1.953601953601946625e-07,3.301587301587300739e-05,-3.575091575091575267e-05,-3.496947496947496831e-05,-2.090354090354090390e-05,1.953601953601946625e-07,-5.489621489621489514e-05,-6.837606837606837804e-06,1.953601953601946625e-07,1.953601953601946625e-07,-2.246642246642246586e-05,-1.113553113553113658e-05,-1.269841269841269854e-05,1.953601953601946625e-07,-2.481074481074480880e-05,-1.738705738705738780e-05,6.056166056166055131e-06,-1.035409035409035391e-05,1.953601953601946625e-07,4.590964590964590879e-05,-1.621489621489621464e-05,1.582417582417582245e-05,2.148962148962148540e-06,6.056166056166055131e-06
-4.493284493284494019e-06,-4.903540903540903949e-05,-3.028083028083027904e-05,2.051282051282051172e-05,1.953601953601946625e-07,3.028083028083027904e-05,-3.770451770451770682e-05,-3.184371184371184439e-05,-2.402930402930402782e-05,1.953601953601946625e-07,-5.294261294261294099e-05,-8.400488400488399763e-06,1.953601953601946625e-07,1.758241758241757415e-06,-2.012210012210011953e-05,-1.074481074481074439e-05,-1.308913308913309072e-05,1.953601953601946625e-07,-1.855921855921856096e-05,-6.446886446886447315e-06,9.768009768009760124e-07,-1.660561660561660682e-05,1.953601953601946625e-07,3.067155067155066784e-05,5.665445665445664641e-06,1.543345543345543027e-05,4.493284493284492325e-06,9.768009768009760124e-07
-4.884004884004884509e-06,-5.528693528693528732e-05,-1.973137973137973074e-05,1.738705738705738441e-05,1.953601953601946625e-07,2.598290598290598196e-05,-3.731379731379731463e-05,-3.028083028083027904e-05,-2.090354090354090390e-05,1.953601953601946625e-07,-4.786324786324786294e-05,-6.837606837606837804e-06,1.953601953601946625e-07,1.758241758241757415e-06,-1.699633699633699562e-05,-1.152625152625152537e-05,-7.228327228327229141e-06,1.953601953601946625e-07,-1.113553113553113658e-05,-4.102564102564102683e-06,-4.884004884004884509e-06,-1.230769230769230805e-05,1.953601953601946625e-07,2.012210012210011953e-05,2.402930402930402782e-05,1.426129426129426050e-05,5.860805860805853110e-07,-4.884004884004884509e-06
-4.102564102564102683e-06,-5.528693528693528732e-05,-2.051282051282051511e-05,1.387057387057386831e-05,1.953601953601946625e-07,2.637362637362637076e-05,-3.848595848595848441e-05,-3.340659340659340635e-05,-1.973137973137973074e-05,1.953601953601946625e-07,-4.473748473748473224e-05,-8.009768009768009273e-06,1.953601953601946625e-07,5.860805860805853110e-07,-2.481074481074480880e-05,-8.791208791208791947e-06,9.768009768009760124e-07,1.953601953601946625e-07,-5.274725274725274999e-06,-6.837606837606837804e-06,-1.113553113553113658e-05,-6.837606837606837804e-06,1.953601953601946625e-07,2.090354090354090390e-05,5.274725274725273304e-06,3.028083028083027904e-05,4.493284493284492325e-06,-1.113553113553113658e-05
-4.493284493284494019e-06,-5.020757020757020249e-05,-2.051282051282051511e-05,6.056166056166055131e-06,1.953601953601946625e-07,2.090354090354090390e-05,-3.692307692307692245e-05,-3.301587301587302094e-05,-2.051282051282051511e-05,1.953601953601946625e-07,-4.200244200244200051e-05,-1.113553113553113658e-05,1.953601953601946625e-07,-5.860805860805867933e-07,-2.754578754578754731e-05,-6.837606837606837804e-06,9.768009768009760124e-07,1.953601953601946625e-07,-8.791208791208791947e-06,-2.520146520146520098e-05,9.572649572649571232e-06,-8.009768009768009273e-06,1.953601953601946625e-07,2.090354090354090390e-05,-1.953601953601960389e-07,2.402930402930402782e-05,-5.274725274725274999e-06,9.572649572649571232e-06
-7.228327228327229141e-06,-3.965811965811965418e-05,-2.324786324786324684e-05,5.274725274725273304e-06,1.953601953601946625e-07,1.582417582417582245e-05,-3.575091575091575267e-05,-3.223443223443222980e-05,-1.269841269841269854e-05,1.953601953601946625e-07,-3.926739926739926877e-05,-1.152625152625152537e-05,1.953601953601946625e-07,-6.837606837606837804e-06,-2.754578754578754731e-05,-3.321123321123321703e-06,5.274725274725273304e-06,1.953601953601946625e-07,-1.269841269841269854e-05,-3.340659340659340635e-05,1.699633699633699562e-05,-2.539682539682540300e-06,1.953601953601946625e-07,2.363858363858363564e-05,1.953601953601946625e-07,2.637362637362637076e-05,-2.520146520146520098e-05,1.699633699633699562e-05
-9.963369963369963416e-06,-3.770451770451770682e-05,-1.777777777777777660e-05,6.446886446886445620e-06,1.953601953601946625e-07,1.308913308913308903e-05,-3.653235653235653026e-05,-3.223443223443222980e-05,-3.711843711843712193e-06,1.953601953601946625e-07,-3.614163614163613808e-05,-1.230769230769230805e-05,1.953601953601946625e-07,-1.269841269841269854e-05,-2.442002442002442000e-05,-7.228327228327229141e-06,1.387057387057386831e-05,1.953601953601946625e-07,-1.699633699633699562e-05,-1.934065934065934194e-05,1.758241758241757415e-06,4.493284493284492325e-06,1.953601953601946625e-07,1.816849816849816539e-05,1.953601953601946625e-07,2.676434676434676294e-05,-1.465201465201465268e-05,1.758241758241757415e-06
-1.230769230769230805e-05,-3.731379731379731463e-05,-1.308913308913309072e-05,2.148962148962148540e-06,1.953601953601946625e-07,1.113553113553113488e-05,-3.496947496947496831e-05,-3.496947496947496831e-05,-2.148962148962149811e-06,1.953601953601946625e-07,-3.379731379731379853e-05,-1.816849816849816539e-05,1.953601953601946625e-07,-1.426129426129426219e-05,-2.520146520146520098e-05,-1.347985347985347952e-05,1.738705738705738441e-05,1.953601953601946625e-07,-2.832722832722832829e-05,-2.148962148962149811e-06,-1.191697191697191756e-05,8.009768009768009273e-06,1.953601953601946625e-07,1.347985347985347952e-05,-9.768009768009774947e-07,1.738705738705738441e-05,3.321123321123320433e-06,-1.191697191697191756e-05
-1.387057387057387001e-05,-3.184371184371184439e-05,-7.619047619047618784e-06,-2.539682539682540300e-06,1.953601953601946625e-07,1.426129426129426050e-05,-3.457875457875457612e-05,-3.418803418803418394e-05,-2.539682539682540300e-06,1.953601953601946625e-07,-2.910866910866910588e-05,-2.090354090354090390e-05,1.953601953601946625e-07,-8.009768009768009273e-06,-2.129426129426129270e-05,-1.465201465201465268e-05,1.347985347985347952e-05,1.953601953601946625e-07,-2.598290598290598196e-05,3.321123321123320433e-06,-1.426129426129426219e-05,7.619047619047617936e-06,1.953601953601946625e-07,8.009768009768009273e-06,-9.768009768009774947e-07,2.559218559218558978e-05,-3.711843711843712193e-06,-1.426129426129426219e-05
-1.816849816849816539e-05,-2.559218559218559317e-05,-7.228327228327229141e-06,1.953601953601946625e-07,1.953601953601946625e-07,1.347985347985347952e-05,-3.301587301587302094e-05,-3.614163614163613808e-05,2.930402930402929519e-06,1.953601953601946625e-07,-2.129426129426129270e-05,-1.855921855921856096e-05,1.953601953601946625e-07,-4.102564102564102683e-06,-2.129426129426129270e-05,-1.347985347985347952e-05,1.387057387057386831e-05,1.953601953601946625e-07,-2.012210012210011953e-05,1.543345543345543027e-05,-3.536019536019536049e-05,1.504273504273504148e-05,1.953601953601946625e-07,7.619047619047617936e-06,-3.711843711843712193e-06,2.559218559218558978e-05,1.152625152625152537e-05,-3.536019536019536049e-05
-1.621489621489621464e-05,-1.816849816849816539e-05,-1.308913308913309072e-05,-5.860805860805867933e-07,1.953601953601946625e-07,1.347985347985347952e-05,-3.145299145299145221e-05,-3.575091575091575267e-05,3.711843711843710922e-06,1.953601953601946625e-07,-1.504273504273504148e-05,-1.934065934065934194e-05,1.953601953601946625e-07,2.148962148962148540e-06,-2.402930402930402782e-05,-1.308913308913309072e-05,9.181929181929180742e-06,1.953601953601946625e-07,-1.973137973137973074e-05,-8.791208791208791947e-06,-1.504273504273504148e-05,1.934065934065933856e-05,1.953601953601946625e-07,1.347985347985347952e-05,-1.894993894993894976e-05,2.246642246642246247e-05,-5.665445665445665488e-06,-1.504273504273504148e-05
-1.230769230769230805e-05,9.768009768009760124e-07,-3.106227106227106002e-05,-2.148962148962149811e-06,1.953601953601946625e-07,1.230769230769230635e-05,-2.715506715506715174e-05,-3.223443223443222980e-05,1.367521367521366926e-06,1.953601953601946625e-07,-1.191697191697191756e-05,-2.012210012210011953e-05,1.953601953601946625e-07,4.884004884004883662e-06,-2.559218559218559317e-05,-1.152625152625152537e-05,6.446886446886445620e-06,1.953601953601946625e-07,-1.465201465201465268e-05,-2.324786324786324684e-05,-2.539682539682540300e-06,1.504273504273504148e-05,1.953601953601946625e-07,3.145299145299145221e-05,-2.871794871794871708e-05,1.582417582417582245e-05,-2.090354090354090390e-05,-2.539682539682540300e-06
-1.230769230769230805e-05,6.446886446886445620e-06,-3.653235653235653026e-05,-1.953601953601960389e-07,1.953601953601946625e-07,9.181929181929180742e-06,-1.973137973137973074e-05,-3.379731379731379853e-05,9.768009768009760124e-07,1.953601953601946625e-07,-7.228327228327229141e-06,-1.894993894993894976e-05,1.953601953601946625e-07,-1.367521367521368196e-06,-1.699633699633699562e-05,-9.572649572649572926e-06,9.768009768009760124e-07,1.953601953601946625e-07,-7.228327228327229141e-06,-2.715506715506715174e-05,-3.321123321123321703e-06,1.113553113553113488e-05,1.953601953601946625e-07,3.692307692307691567e-05,-1.894993894993894976e-05,8.400488400488398069e-06,-2.598290598290598196e-05,-3.321123321123321703e-06
-8.009768009768009273e-06,-1.660561660561660682e-05,-6.056166056166056825e-06,-1.230769230769230805e-05,1.953601953601946625e-07,5.274725274725273304e-06,-1.816849816849816539e-05,-3.301587301587302094e-05,9.768009768009760124e-07,1.953601953601946625e-07,-7.228327228327229141e-06,-1.621489621489621464e-05,1.953601953601946625e-07,-6.446886446886447315e-06,-8.009768009768009273e-06,-1.347985347985347952e-05,-5.860805860805867933e-07,1.953601953601946625e-07,-9.963369963369963416e-06,-1.738705738705738780e-05,-1.582417582417582245e-05,1.426129426129426050e-05,1.953601953601946625e-07,6.446886446886445620e-06,4.102564102564101835e-06,-5.274725274725274999e-06,-1.191697191697191756e-05,-1.582417582417582245e-05
-1.113553113553113658e-05,-4.884004884004884509e-06,-1.113553113553113658e-05,-1.855921855921856096e-05,1.953601953601946625e-07,5.665445665445664641e-06,-1.426129426129426219e-05,-3.614163614163613808e-05,-2.930402930402930790e-06,1.953601953601946625e-07,-9.572649572649572926e-06,-1.621489621489621464e-05,1.953601953601946625e-07,-8.791208791208791947e-06,-6.837606837606837804e-06,-1.152625152625152537e-05,-5.860805860805867933e-07,1.953601953601946625e-07,-5.665445665445665488e-06,-3.145299145299145221e-05,1.758241758241757415e-06,7.228327228327227447e-06,1.953601953601946625e-07,1.152625152625152537e-05,-1.152625152625152537e-05,2.930402930402929519e-06,-2.363858363858363902e-05,1.758241758241757415e-06
-6.446886446886447315e-06,-9.572649572649572926e-06,-3.321123321123321703e-06,-2.402930402930402782e-05,1.953601953601946625e-07,1.113553113553113488e-05,-1.269841269841269854e-05,-3.653235653235653026e-05,-7.228327228327229141e-06,1.953601953601946625e-07,-9.572649572649572926e-06,-1.699633699633699562e-05,1.953601953601946625e-07,-7.228327228327229141e-06,-3.711843711843712193e-06,-1.191697191697191756e-05,-1.758241758241758898e-06,1.953601953601946625e-07,-1.758241758241758898e-06,-3.457875457875457612e-05,1.035409035409035221e-05,5.860805860805853110e-07,1.953601953601946625e-07,3.711843711843710922e-06,-9.768009768009774947e-07,1.758241758241757415e-06,-3.223443223443222980e-05,1.035409035409035221e-05
-8.791208791208791947e-06,-9.572649572649572926e-06,-1.953601953601960389e-07,-2.520146520146520098e-05,1.953601953601946625e-07,1.308913308913308903e-05,-1.308913308913309072e-05,-3.926739926739926877e-05,-6.837606837606837804e-06,1.953601953601946625e-07,-7.228327228327229141e-06,-1.934065934065934194e-05,1.953601953601946625e-07,-6.056166056166056825e-06,-8.791208791208791947e-06,-1.504273504273504148e-05,5.274725274725273304e-06,1.953601953601946625e-07,-2.930402930402930790e-06,-2.910866910866910588e-05,6.056166056166055131e-06,1.758241758241757415e-06,1.953601953601946625e-07,5.860805860805853110e-07,-4.102564102564102683e-06,8.791208791208790252e-06,-3.028083028083027904e-05,6.056166056166055131e-06
-7.228327228327229141e-06,8.009768009768009273e-06,-1.465201465201465268e-05,-2.832722832722832829e-05,1.953601953601946625e-07,1.894993894993894976e-05,-1.035409035409035391e-05,-3.692307692307692245e-05,-1.504273504273504148e-05,1.953601953601946625e-07,-7.228327228327229141e-06,-2.090354090354090390e-05,1.953601953601946625e-07,-3.321123321123321703e-06,-1.426129426129426219e-05,-8.400488400488399763e-06,2.539682539682539030e-06,1.953601953601946625e-07,-2.539682539682540300e-06,-1.738705738705738780e-05,-5.860805860805867933e-07,-2.930402930402930790e-06,1.953601953601946625e-07,1.504273504273504148e-05,-2.871794871794871708e-05,1.191697191697191417e-05,-1.308913308913309072e-05,-5.860805860805867933e-07
-1.758241758241758898e-06,3.028083028083027904e-05,-2.871794871794871708e-05,-3.770451770451770682e-05,1.953601953601946625e-07,2.442002442002441662e-05,-6.056166056166056825e-06,-3.301587301587302094e-05,-2.285714285714285804e-05,1.953601953601946625e-07,-4.884004884004884509e-06,-2.129426129426129270e-05,1.953601953601946625e-07,-1.367521367521368196e-06,-1.230769230769230805e-05,-3.711843711843712193e-06,-1.367521367521368196e-06,1.953601953601946625e-07,-1.758241758241758898e-06,2.168498168498168149e-05,-3.067155067155067461e-05,-8.791208791208791947e-06,1.953601953601946625e-07,2.910866910866910588e-05,-3.887667887667887659e-05,1.758241758241757415e-06,2.051282051282051172e-05,-3.067155067155067461e-05
5.860805860805853110e-07,2.793650793650793610e-05,-1.660561660561660682e-05,-4.317460317460317706e-05,1.953601953601946625e-07,2.520146520146520098e-05,-6.056166056166056825e-06,-2.637362637362637415e-05,-2.324786324786324684e-05,1.953601953601946625e-07,-1.953601953601960389e-07,-1.738705738705738780e-05,1.953601953601946625e-07,-5.860805860805867933e-07,-1.230769230769230805e-05,-3.321123321123321703e-06,2.930402930402929519e-06,1.953601953601946625e-07,-1.953601953601960389e-07,2.637362637362637076e-05,-3.457875457875457612e-05,-4.884004884004884509e-06,1.953601953601946625e-07,1.699633699633699562e-05,-2.520146520146520098e-05,-2.539682539682540300e-06,1.699633699633699562e-05,-3.457875457875457612e-05
4.884004884004883662e-06,1.777777777777777660e-05,-9.572649572649572926e-06,-4.590964590964590879e-05,1.953601953601946625e-07,2.285714285714285804e-05,-9.572649572649572926e-06,-2.090354090354090390e-05,-2.442002442002442000e-05,1.953601953601946625e-07,-5.860805860805867933e-07,-1.387057387057387001e-05,1.953601953601946625e-07,-1.621489621489621464e-05,-3.711843711843712193e-06,-5.665445665445665488e-06,4.493284493284492325e-06,1.953601953601946625e-07,-4.493284493284494019e-06,1.582417582417582245e-05,-3.340659340659340635e-05,1.953601953601946625e-07,1.953601953601946625e-07,9.963369963369963416e-06,-2.363858363858363902e-05,-8.791208791208791947e-06,1.738705738705738441e-05,-3.340659340659340635e-05
1.074481074481074270e-05,1.621489621489621464e-05,-1.308913308913309072e-05,-5.059829059829059467e-05,1.953601953601946625e-07,1.504273504273504148e-05,-9.181929181929182436e-06,-1.269841269841269854e-05,-2.871794871794871708e-05,1.953601953601946625e-07,-1.367521367521368196e-06,-6.837606837606837804e-06,1.953601953601946625e-07,-2.676434676434676294e-05,1.953601953601946625e-07,-6.446886446886447315e-06,3.711843711843710922e-06,1.953601953601946625e-07,-7.228327228327229141e-06,-2.090354090354090390e-05,-5.665445665445665488e-06,5.274725274725273304e-06,1.953601953601946625e-07,1.347985347985347952e-05,-2.363858363858363902e-05,-2.012210012210011953e-05,-1.465201465201465268e-05,-5.665445665445665488e-06
1.621489621489621464e-05,1.074481074481074270e-05,-1.152625152625152537e-05,-4.747252747252747075e-05,1.953601953601946625e-07,9.963369963369963416e-06,-6.837606837606837804e-06,-6.056166056166056825e-06,-2.793650793650793610e-05,1.953601953601946625e-07,9.768009768009760124e-07,-9.768009768009774947e-07,1.953601953601946625e-07,-2.989010989010989025e-05,1.953601953601946625e-07,-5.274725274725274999e-06,4.102564102564101835e-06,1.953601953601946625e-07,-9.181929181929182436e-06,-4.317460317460317706e-05,9.181929181929180742e-06,1.308913308913308903e-05,1.953601953601946625e-07,1.191697191697191417e-05,-1.074481074481074439e-05,-2.637362637362637415e-05,-4.669108669108668638e-05,9.181929181929180742e-06
2.246642246642246247e-05,9.181929181929180742e-06,-2.012210012210011953e-05,-3.848595848595848441e-05,1.953601953601946625e-07,6.446886446886445620e-06,-7.228327228327229141e-06,-3.321123321123321703e-06,-2.207570207570207368e-05,1.953601953601946625e-07,2.930402930402929519e-06,3.711843711843710922e-06,1.953601953601946625e-07,-4.083028083028083073e-05,5.860805860805853110e-07,-4.102564102564102683e-06,5.665445665445664641e-06,1.953601953601946625e-07,-1.855921855921856096e-05,-3.496947496947496831e-05,-4.493284493284494019e-06,2.051282051282051172e-05,1.953601953601946625e-07,2.051282051282051172e-05,-1.308913308913309072e-05,-3.536019536019536049e-05,-3.653235653235653026e-05,-4.493284493284494019e-06
2.949938949938949467e-05,4.434676434676434683e-05,-4.942612942612942489e-05,-3.457875457875457612e-05,1.953601953601946625e-07,1.191697191697191417e-05,5.860805860805853110e-07,-1.953601953601960389e-07,-2.285714285714285804e-05,1.953601953601946625e-07,7.228327228327227447e-06,1.230769230769230635e-05,1.953601953601946625e-07,-2.676434676434676294e-05,5.860805860805853110e-07,9.768009768009760124e-07,5.274725274725273304e-06,1.953601953601946625e-07,-2.129426129426129270e-05,-9.181929181929182436e-06,-7.228327228327229141e-06,1.934065934065933856e-05,1.953601953601946625e-07,4.981684981684981708e-05,-5.137973137973137904e-05,-4.630036630036629420e-05,-1.074481074481074439e-05,-7.228327228327229141e-06
3.770451770451770682e-05,4.786324786324786294e-05,-4.317460317460317706e-05,-3.028083028083027904e-05,1.953601953601946625e-07,2.168498168498168149e-05,6.837606837606836957e-06,2.148962148962148540e-06,-1.894993894993894976e-05,1.953601953601946625e-07,1.387057387057386831e-05,1.894993894993894976e-05,1.953601953601946625e-07,-7.619047619047618784e-06,-1.758241758241758898e-06,7.228327228327227447e-06,5.274725274725273304e-06,1.953601953601946625e-07,-1.894993894993894976e-05,7.619047619047617936e-06,-2.148962148962149811e-06,1.699633699633699562e-05,1.953601953601946625e-07,4.356532356532356247e-05,-4.590964590964590879e-05,-5.177045177045177122e-05,-5.665445665445665488e-06,-2.148962148962149811e-06
3.770451770451770682e-05,2.715506715506715174e-05,-3.536019536019536049e-05,-1.934065934065934194e-05,1.953601953601946625e-07,1.816849816849816539e-05,2.148962148962148540e-06,-1.953601953601960389e-07,-9.963369963369963416e-06,1.953601953601946625e-07,1.543345543345543027e-05,2.285714285714285804e-05,1.953601953601946625e-07,-1.191697191697191756e-05,-1.953601953601960389e-07,5.665445665445664641e-06,8.791208791208790252e-06,1.953601953601946625e-07,-2.246642246642246586e-05,-4.102564102564102683e-06,1.074481074481074270e-05,1.816849816849816539e-05,1.953601953601946625e-07,3.575091575091575267e-05,-2.754578754578754731e-05,-5.763125763125762687e-05,-1.699633699633699562e-05,1.074481074481074270e-05
3.692307692307691567e-05,-1.953601953601960389e-07,-2.793650793650793610e-05,-2.012210012210011953e-05,1.953601953601946625e-07,2.539682539682539030e-06,-9.768009768009774947e-07,-9.768009768009774947e-07,-1.152625152625152537e-05,1.953601953601946625e-07,1.113553113553113488e-05,2.676434676434676294e-05,1.953601953601946625e-07,-2.676434676434676294e-05,-1.367521367521368196e-06,7.619047619047617936e-06,9.181929181929180742e-06,1.953601953601946625e-07,-2.989010989010989025e-05,-2.148962148962149811e-06,5.274725274725273304e-06,1.621489621489621464e-05,1.953601953601946625e-07,2.832722832722832490e-05,-9.963369963369963416e-06,-6.388278388278387471e-05,-1.269841269841269854e-05,5.274725274725273304e-06
3.457875457875457612e-05,-2.246642246642246586e-05,-1.660561660561660682e-05,-2.715506715506715174e-05,1.953601953601946625e-07,-1.426129426129426219e-05,9.768009768009760124e-07,1.953601953601946625e-07,-1.855921855921856096e-05,1.953601953601946625e-07,1.191697191697191417e-05,2.637362637362637076e-05,1.953601953601946625e-07,-3.418803418803418394e-05,9.768009768009760124e-07,1.074481074481074270e-05,5.665445665445664641e-06,1.953601953601946625e-07,-3.653235653235653026e-05,7.228327228327227447e-06,1.953601953601946625e-07,1.347985347985347952e-05,1.953601953601946625e-07,1.699633699633699562e-05,8.400488400488398069e-06,-7.404151404151404438e-05,-6.837606837606837804e-06,1.953601953601946625e-07
4.043956043956043855e-05,-2.715506715506715174e-05,-1.660561660561660682e-05,-2.715506715506715174e-05,1.953601953601946625e-07,-1.973137973137973074e-05,9.768009768009760124e-07,6.056166056166055131e-06,-1.894993894993894976e-05,1.953601953601946625e-07,1.269841269841269684e-05,3.262515262515262198e-05,1.953601953601946625e-07,-3.614163614163613808e-05,8.791208791208790252e-06,1.816849816849816539e-05,4.102564102564101835e-06,1.953601953601946625e-07,-4.551892551892551661e-05,2.285714285714285804e-05,-1.953601953601960389e-07,1.816849816849816539e-05,1.953601953601946625e-07,1.699633699633699562e-05,1.426129426129426050e-05,-8.967032967032966396e-05,-1.367521367521368196e-06,-1.953601953601960389e-07
4.356532356532356247e-05,-2.520146520146520098e-05,-2.676434676434676294e-05,-1.777777777777777660e-05,1.953601953601946625e-07,-2.559218559218559317e-05,2.930402930402929519e-06,9.181929181929180742e-06,-1.426129426129426219e-05,1.953601953601946625e-07,1.074481074481074270e-05,4.043956043956043855e-05,1.953601953601946625e-07,-4.161172161172160832e-05,1.269841269841269684e-05,2.442002442002441662e-05,7.228327228327227447e-06,1.953601953601946625e-07,-5.528693528693528732e-05,5.645909645909645710e-05,-2.442002442002442000e-05,2.715506715506715174e-05,1.953601953601946625e-07,2.715506715506715174e-05,4.102564102564101835e-06,-1.006105006105006045e-04,3.184371184371184439e-05,-2.442002442002442000e-05
4.708180708180707857e-05,-1.660561660561660682e-05,-3.770451770451770682e-05,-9.572649572649572926e-06,1.953601953601946625e-07,-2.207570207570207368e-05,4.884004884004883662e-06,1.074481074481074270e-05,-1.269841269841269854e-05,1.953601953601946625e-07,1.074481074481074270e-05,4.356532356532356247e-05,1.953601953601946625e-07,-3.418803418803418394e-05,1.816849816849816539e-05,2.832722832722832490e-05,5.665445665445664641e-06,1.953601953601946625e-07,-5.802197802197801905e-05,5.763125763125762687e-05,-1.152625152625152537e-05,3.145299145299145221e-05,1.953601953601946625e-07,3.809523809523809222e-05,-1.074481074481074439e-05,-1.092063492063491918e-04,3.418803418803418394e-05,-1.152625152625152537e-05
4.903540903540903271e-05,-2.520146520146520098e-05,-4.786324786324786294e-05,-1.953601953601960389e-07,1.953601953601946625e-07,-2.442002442002442000e-05,1.953601953601946625e-07,9.963369963369963416e-06,-9.572649572649572926e-06,1.953601953601946625e-07,7.619047619047617936e-06,4.395604395604395465e-05,1.953601953601946625e-07,-3.184371184371184439e-05,1.543345543345543027e-05,2.559218559218558978e-05,5.274725274725273304e-06,1.953601953601946625e-07,-6.231990231990231952e-05,3.379731379731379853e-05,9.181929181929180742e-06,3.496947496947496153e-05,1.953601953601946625e-07,4.825396825396824834e-05,1.758241758241757415e-06,-1.248351648351648385e-04,8.791208791208790252e-06,9.181929181929180742e-06
3.457875457875457612e-05,-4.239316239316239269e-05,-4.786324786324786294e-05,1.504273504273504148e-05,1.953601953601946625e-07,-3.653235653235653026e-05,-2.930402930402930790e-06,5.860805860805853110e-07,-2.148962148962149811e-06,1.953601953601946625e-07,2.148962148962148540e-06,4.043956043956043855e-05,1.953601953601946625e-07,-4.317460317460317706e-05,8.400488400488398069e-06,2.363858363858363564e-05,1.269841269841269684e-05,1.953601953601946625e-07,-7.599511599511598497e-05,2.442002442002441662e-05,1.660561660561660343e-05,3.770451770451770682e-05,1.953601953601946625e-07,4.825396825396824834e-05,1.504273504273504148e-05,-1.283516483516483479e-04,2.148962148962148540e-06,1.660561660561660343e-05
3.067155067155066784e-05,-4.786324786324786294e-05,-5.137973137973137904e-05,9.181929181929180742e-06,1.953601953601946625e-07,-3.965811965811965418e-05,-2.539682539682540300e-06,-5.274725274725274999e-06,-9.572649572649572926e-06,1.953601953601946625e-07,-5.860805860805867933e-07,4.004884004884004637e-05,1.953601953601946625e-07,-3.692307692307692245e-05,3.321123321123320433e-06,2.442002442002441662e-05,1.367521367521366926e-06,1.953601953601946625e-07,-7.912087912087912244e-05,3.457875457875457612e-05,1.074481074481074270e-05,2.637362637362637076e-05,1.953601953601946625e-07,5.177045177045177122e-05,6.446886446886445620e-06,-1.310866910866910593e-04,2.246642246642246247e-05,1.074481074481074270e-05
2.442002442002441662e-05,-5.450549450549450295e-05,-4.356532356532356247e-05,-5.860805860805867933e-07,1.953601953601946625e-07,-4.669108669108668638e-05,-9.768009768009774947e-07,-8.791208791208791947e-06,-1.699633699633699562e-05,1.953601953601946625e-07,-5.665445665445665488e-06,3.809523809523809222e-05,1.953601953601946625e-07,-2.520146520146520098e-05,-8.791208791208791947e-06,2.598290598290598196e-05,-3.321123321123321703e-06,1.953601953601946625e-07,-8.224664224664224635e-05,2.012210012210011953e-05,2.871794871794871708e-05,2.090354090354090390e-05,1.953601953601946625e-07,4.395604395604395465e-05,1.738705738705738441e-05,-1.330402930402930541e-04,4.493284493284492325e-06,2.871794871794871708e-05
1.894993894993894976e-05,-4.278388278388277810e-05,-5.333333333333333318e-05,-1.953601953601960389e-07,1.953601953601946625e-07,-4.981684981684981708e-05,3.321123321123320433e-06,-1.347985347985347952e-05,-1.816849816849816539e-05,1.953601953601946625e-07,-8.009768009768009273e-06,3.809523809523809222e-05,1.953601953601946625e-07,-2.754578754578754731e-05,-2.148962148962149811e-06,2.246642246642246247e-05,1.953601953601946625e-07,1.953601953601946625e-07,-8.068376068376067762e-05,3.028083028083027904e-05,2.207570207570207368e-05,2.012210012210011953e-05,1.953601953601946625e-07,5.372405372405372536e-05,1.113553113553113488e-05,-1.279609279609279489e-04,8.400488400488398069e-06,2.207570207570207368e-05
1.777777777777777660e-05,-2.715506715506715174e-05,-7.404151404151404438e-05,-3.711843711843712193e-06,1.953601953601946625e-07,-5.059829059829059467e-05,6.056166056166055131e-06,-1.855921855921856096e-05,-2.363858363858363902e-05,1.953601953601946625e-07,-1.074481074481074439e-05,3.536019536019536049e-05,1.953601953601946625e-07,-2.442002442002442000e-05,-2.930402930402930790e-06,1.855921855921855758e-05,2.539682539682539030e-06,1.953601953601946625e-07,-7.208791208791209023e-05,5.216117216117215663e-05,-2.539682539682540300e-06,1.543345543345543027e-05,1.953601953601946625e-07,7.443223443223442978e-05,-1.308913308913309072e-05,-1.189743589743589761e-04,3.536019536019536049e-05,-2.539682539682540300e-06
1.816849816849816539e-05,-2.637362637362637415e-05,-7.599511599511598497e-05,-8.009768009768009273e-06,1.953601953601946625e-07,-5.216117216117215663e-05,8.791208791208790252e-06,-2.051282051282051511e-05,-2.949938949938950145e-05,1.953601953601946625e-07,-1.387057387057387001e-05,3.184371184371184439e-05,1.953601953601946625e-07,-2.168498168498168488e-05,-5.274725274725274999e-06,1.855921855921855758e-05,1.758241758241757415e-06,1.953601953601946625e-07,-6.700854700854701218e-05,4.630036630036629420e-05,2.539682539682539030e-06,1.113553113553113488e-05,1.953601953601946625e-07,7.638583638583638393e-05,-1.074481074481074439e-05,-1.162393162393162376e-04,2.949938949938949467e-05,2.539682539682539030e-06
1.816849816849816539e-05,-2.129426129426129270e-05,-7.873015873015873703e-05,-5.274725274725274999e-06,1.953601953601946625e-07,-5.216117216117215663e-05,1.504273504273504148e-05,-2.442002442002442000e-05,-2.559218559218559317e-05,1.953601953601946625e-07,-7.228327228327229141e-06,3.028083028083027904e-05,1.953601953601946625e-07,-2.520146520146520098e-05,6.837606837606836957e-06,1.855921855921855758e-05,1.758241758241757415e-06,1.953601953601946625e-07,-6.739926739926739758e-05,6.622710622710622781e-05,-7.228327228327229141e-06,1.035409035409035221e-05,1.953601953601946625e-07,7.912087912087912244e-05,-4.493284493284494019e-06,-1.189743589743589761e-04,3.809523809523809222e-05,-7.228327228327229141e-06
2.051282051282051172e-05,-2.559218559218559317e-05,-7.169719169719169127e-05,-1.758241758241758898e-06,1.953601953601946625e-07,-4.825396825396824834e-05,2.012210012210011953e-05,-3.028083028083027904e-05,-2.051282051282051511e-05,1.953601953601946625e-07,-1.367521367521368196e-06,2.715506715506715174e-05,1.953601953601946625e-07,-1.894993894993894976e-05,6.446886446886445620e-06,2.129426129426129270e-05,1.758241758241757415e-06,1.953601953601946625e-07,-7.365079365079364542e-05,5.020757020757020249e-05,2.363858363858363564e-05,9.963369963369963416e-06,1.953601953601946625e-07,7.208791208791209023e-05,-1.953601953601960389e-07,-1.244444444444444396e-04,1.816849816849816539e-05,2.363858363858363564e-05
2.402930402930402782e-05,-3.106227106227106002e-05,-5.528693528693528732e-05,-2.148962148962149811e-06,1.953601953601946625e-07,-3.770451770451770682e-05,2.481074481074480880e-05,-3.184371184371184439e-05,-1.894993894993894976e-05,1.953601953601946625e-07,2.539682539682539030e-06,2.129426129426129270e-05,1.953601953601946625e-07,-1.230769230769230805e-05,1.074481074481074270e-05,2.168498168498168149e-05,-2.930402930402930790e-06,1.953601953601946625e-07,-7.716727716727715474e-05,3.692307692307691567e-05,5.294261294261293422e-05,4.102564102564101835e-06,1.953601953601946625e-07,5.567765567765567950e-05,8.400488400488398069e-06,-1.338217338217338249e-04,7.228327228327227447e-06,5.294261294261293422e-05
2.324786324786324684e-05,-2.793650793650793610e-05,-3.848595848595848441e-05,-2.148962148962149811e-06,1.953601953601946625e-07,-2.715506715506715174e-05,2.598290598290598196e-05,-3.067155067155067461e-05,-1.308913308913309072e-05,1.953601953601946625e-07,9.963369963369963416e-06,1.816849816849816539e-05,1.953601953601946625e-07,-1.035409035409035391e-05,2.363858363858363564e-05,2.129426129426129270e-05,-7.619047619047618784e-06,1.953601953601946625e-07,-7.404151404151404438e-05,3.184371184371184439e-05,6.544566544566544344e-05,2.930402930402929519e-06,1.953601953601946625e-07,3.887667887667886981e-05,1.855921855921855758e-05,-1.349938949938949946e-04,-1.367521367521368196e-06,6.544566544566544344e-05
1.973137973137973074e-05,-9.572649572649572926e-06,-4.317460317460317706e-05,2.539682539682539030e-06,1.953601953601946625e-07,-2.168498168498168488e-05,1.894993894993894976e-05,-2.637362637362637415e-05,-5.860805860805867933e-07,1.953601953601946625e-07,9.963369963369963416e-06,1.894993894993894976e-05,1.953601953601946625e-07,-1.347985347985347952e-05,2.324786324786324684e-05,2.520146520146520098e-05,-6.837606837606837804e-06,1.953601953601946625e-07,-7.286935286935286105e-05,4.512820512820512443e-05,5.098901098901098008e-05,3.711843711843710922e-06,1.953601953601946625e-07,4.356532356532356247e-05,-2.148962148962149811e-06,-1.224908424908424990e-04,1.113553113553113488e-05,5.098901098901098008e-05
6.837606837606836957e-06,7.619047619047617936e-06,-2.910866910866910588e-05,3.321123321123320433e-06,1.953601953601946625e-07,-1.582417582417582245e-05,1.152625152625152537e-05,-1.269841269841269854e-05,6.446886446886445620e-06,1.953601953601946625e-07,9.963369963369963416e-06,1.738705738705738441e-05,1.953601953601946625e-07,-1.230769230769230805e-05,2.559218559218558978e-05,2.246642246642246247e-05,-8.400488400488399763e-06,1.953601953601946625e-07,-6.818070818070818195e-05,5.333333333333333318e-05,4.122100122100122292e-05,1.953601953601946625e-07,1.953601953601946625e-07,2.949938949938949467e-05,-2.246642246642246586e-05,-9.357753357753357225e-05,2.598290598290598196e-05,4.122100122100122292e-05
1.953601953601946625e-07,-1.758241758241758898e-06,1.387057387057386831e-05,8.009768009768009273e-06,1.953601953601946625e-07,-8.791208791208791947e-06,8.400488400488398069e-06,3.321123321123320433e-06,1.699633699633699562e-05,1.953601953601946625e-07,9.572649572649571232e-06,1.543345543345543027e-05,1.953601953601946625e-07,-6.837606837606837804e-06,2.989010989010989025e-05,1.699633699633699562e-05,-2.148962148962149811e-06,1.953601953601946625e-07,-5.450549450549450295e-05,7.677655677655676933e-05,1.465201465201465099e-05,9.768009768009760124e-07,1.953601953601946625e-07,-1.347985347985347952e-05,-5.274725274725274999e-06,-6.231990231990231952e-05,4.669108669108668638e-05,1.465201465201465099e-05
-5.274725274725274999e-06,5.665445665445664641e-06,3.184371184371184439e-05,1.269841269841269684e-05,1.953601953601946625e-07,-5.274725274725274999e-06,8.009768009768009273e-06,1.308913308913308903e-05,2.832722832722832490e-05,1.953601953601946625e-07,8.791208791208790252e-06,1.934065934065933856e-05,1.953601953601946625e-07,-2.539682539682540300e-06,2.520146520146520098e-05,2.168498168498168149e-05,3.711843711843710922e-06,1.953601953601946625e-07,-4.747252747252747075e-05,6.466422466422465907e-05,2.442002442002441662e-05,6.056166056166055131e-06,1.953601953601946625e-07,-3.145299145299145221e-05,-9.768009768009774947e-07,-4.317460317460317706e-05,2.910866910866910588e-05,2.442002442002441662e-05
-5.274725274725274999e-06,8.400488400488398069e-06,4.981684981684981708e-05,1.191697191697191417e-05,1.953601953601946625e-07,-1.953601953601960389e-07,1.074481074481074270e-05,2.129426129426129270e-05,3.223443223443222980e-05,1.953601953601946625e-07,6.056166056166055131e-06,2.207570207570207368e-05,1.953601953601946625e-07,1.953601953601946625e-07,2.402930402930402782e-05,1.855921855921855758e-05,7.619047619047617936e-06,1.953601953601946625e-07,-4.434676434676434683e-05,4.317460317460317028e-05,4.161172161172160832e-05,1.035409035409035221e-05,1.953601953601946625e-07,-4.942612942612942489e-05,-4.493284493284494019e-06,-2.481074481074480880e-05,8.791208791208790252e-06,4.161172161172160832e-05
3.711843711843710922e-06,5.860805860805853110e-07,6.427350427350427367e-05,2.930402930402929519e-06,1.953601953601946625e-07,4.102564102564101835e-06,1.426129426129426050e-05,2.246642246642246247e-05,3.106227106227106002e-05,1.953601953601946625e-07,1.758241758241757415e-06,2.324786324786324684e-05,1.953601953601946625e-07,1.758241758241757415e-06,2.168498168498168149e-05,1.582417582417582245e-05,8.009768009768009273e-06,1.953601953601946625e-07,-3.496947496947496831e-05,2.754578754578754392e-05,4.278388278388277810e-05,1.230769230769230635e-05,1.953601953601946625e-07,-6.388278388278387471e-05,1.074481074481074270e-05,-2.949938949938950145e-05,2.539682539682539030e-06,4.278388278388277810e-05
8.400488400488398069e-06,-1.758241758241758898e-06,6.349206349206348930e-05,-6.446886446886447315e-06,1.953601953601946625e-07,-1.367521367521368196e-06,1.074481074481074270e-05,1.894993894993894976e-05,3.379731379731379853e-05,1.953601953601946625e-07,-9.768009768009774947e-07,2.442002442002441662e-05,1.953601953601946625e-07,-5.665445665445665488e-06,1.738705738705738441e-05,1.465201465201465099e-05,1.113553113553113488e-05,1.953601953601946625e-07,-3.457875457875457612e-05,2.324786324786324684e-05,3.145299145299145221e-05,1.738705738705738441e-05,1.953601953601946625e-07,-6.310134310134310389e-05,2.520146520146520098e-05,-3.731379731379731463e-05,-6.056166056166056825e-06,3.145299145299145221e-05
1.035409035409035221e-05,1.387057387057386831e-05,4.043956043956043855e-05,-1.308913308913309072e-05,1.953601953601946625e-07,-9.963369963369963416e-06,4.493284493284492325e-06,1.934065934065933856e-05,3.770451770451770682e-05,1.953601953601946625e-07,-3.321123321123321703e-06,2.676434676434676294e-05,1.953601953601946625e-07,-1.074481074481074439e-05,1.074481074481074270e-05,1.074481074481074270e-05,1.426129426129426050e-05,1.953601953601946625e-07,-4.200244200244200051e-05,3.340659340659340635e-05,1.621489621489621464e-05,1.660561660561660343e-05,1.953601953601946625e-07,-4.004884004884004637e-05,-2.148962148962149811e-06,-2.949938949938950145e-05,-1.758241758241758898e-06,1.621489621489621464e-05
5.274725274725273304e-06,4.493284493284492325e-06,5.020757020757020249e-05,-1.816849816849816539e-05,1.953601953601946625e-07,-1.269841269841269854e-05,-2.539682539682540300e-06,2.012210012210011953e-05,3.848595848595848441e-05,1.953601953601946625e-07,-6.837606837606837804e-06,2.520146520146520098e-05,1.953601953601946625e-07,-8.791208791208791947e-06,3.711843711843710922e-06,6.837606837606836957e-06,1.426129426129426050e-05,1.953601953601946625e-07,-3.809523809523809222e-05,3.653235653235653026e-05,1.758241758241757415e-06,1.582417582417582245e-05,1.953601953601946625e-07,-4.981684981684981708e-05,-2.930402930402930790e-06,-2.363858363858363902e-05,1.387057387057386831e-05,1.758241758241757415e-06
6.056166056166055131e-06,-1.035409035409035391e-05,6.505494505494504448e-05,-2.481074481074480880e-05,1.953601953601946625e-07,-1.191697191697191756e-05,-8.009768009768009273e-06,1.934065934065933856e-05,3.653235653235653026e-05,1.953601953601946625e-07,-7.228327228327229141e-06,2.481074481074480880e-05,1.953601953601946625e-07,-8.400488400488399763e-06,5.860805860805853110e-07,1.347985347985347952e-05,1.308913308913308903e-05,1.953601953601946625e-07,-3.653235653235653026e-05,3.926739926739926877e-05,-1.953601953601960389e-07,1.660561660561660343e-05,1.953601953601946625e-07,-6.466422466422465907e-05,1.191697191697191417e-05,-2.442002442002442000e-05,1.035409035409035221e-05,-1.953601953601960389e-07
5.665445665445664641e-06,5.274725274725273304e-06,5.372405372405372536e-05,-3.145299145299145221e-05,1.953601953601946625e-07,-8.400488400488399763e-06,-9.572649572649572926e-06,1.855921855921855758e-05,3.457875457875457612e-05,1.953601953601946625e-07,-3.321123321123321703e-06,2.754578754578754392e-05,1.953601953601946625e-07,-1.113553113553113658e-05,3.321123321123320433e-06,1.504273504273504148e-05,1.582417582417582245e-05,1.953601953601946625e-07,-4.122100122100122292e-05,2.285714285714285804e-05,1.934065934065933856e-05,2.129426129426129270e-05,1.953601953601946625e-07,-5.333333333333333318e-05,-3.321123321123321703e-06,-3.028083028083027904e-05,-1.074481074481074439e-05,1.934065934065933856e-05
1.230769230769230635e-05,6.446886446886445620e-06,5.333333333333333318e-05,-4.239316239316239269e-05,1.953601953601946625e-07,-2.148962148962149811e-06,-8.400488400488399763e-06,1.738705738705738441e-05,2.481074481074480880e-05,1.953601953601946625e-07,-2.539682539682540300e-06,2.832722832722832490e-05,1.953601953601946625e-07,-1.816849816849816539e-05,1.191697191697191417e-05,1.191697191697191417e-05,1.621489621489621464e-05,1.953601953601946625e-07,-4.161172161172160832e-05,8.400488400488398069e-06,3.262515262515262198e-05,2.285714285714285804e-05,1.953601953601946625e-07,-5.294261294261294099e-05,-7.619047619047618784e-06,-4.981684981684981708e-05,-1.269841269841269854e-05,3.262515262515262198e-05
2.168498168498168149e-05,2.539682539682539030e-06,5.841269841269841124e-05,-5.880341880341879665e-05,1.953601953601946625e-07,1.953601953601946625e-07,-5.274725274725274999e-06,1.621489621489621464e-05,1.387057387057386831e-05,1.953601953601946625e-07,1.953601953601946625e-07,2.949938949938949467e-05,1.953601953601946625e-07,-1.973137973137973074e-05,9.963369963369963416e-06,2.051282051282051172e-05,1.387057387057386831e-05,1.953601953601946625e-07,-4.122100122100122292e-05,1.269841269841269684e-05,2.910866910866910588e-05,2.324786324786324684e-05,1.953601953601946625e-07,-5.802197802197801905e-05,4.493284493284492325e-06,-7.365079365079364542e-05,-8.009768009768009273e-06,2.910866910866910588e-05
2.324786324786324684e-05,2.246642246642246247e-05,4.043956043956043855e-05,-6.935286935286933817e-05,1.953601953601946625e-07,-2.148962148962149811e-06,-2.930402930402930790e-06,1.308913308913308903e-05,9.963369963369963416e-06,1.953601953601946625e-07,7.228327228327227447e-06,3.184371184371184439e-05,1.953601953601946625e-07,-2.402930402930402782e-05,8.791208791208790252e-06,2.246642246642246247e-05,1.504273504273504148e-05,1.953601953601946625e-07,-4.512820512820513120e-05,2.676434676434676294e-05,1.504273504273504148e-05,2.559218559218558978e-05,1.953601953601946625e-07,-4.004884004884004637e-05,-2.930402930402930790e-06,-8.537240537240537027e-05,-2.930402930402930790e-06,1.504273504273504148e-05
2.676434676434676294e-05,2.832722832722832490e-05,2.793650793650793610e-05,-7.560439560439559956e-05,1.953601953601946625e-07,-2.539682539682540300e-06,-1.367521367521368196e-06,9.181929181929180742e-06,3.321123321123320433e-06,1.953601953601946625e-07,8.009768009768009273e-06,2.871794871794871708e-05,1.953601953601946625e-07,-1.934065934065934194e-05,3.321123321123320433e-06,2.285714285714285804e-05,1.387057387057386831e-05,1.953601953601946625e-07,-3.809523809523809222e-05,4.903540903540903271e-05,-7.228327228327229141e-06,1.816849816849816539e-05,1.953601953601946625e-07,-2.754578754578754731e-05,-7.619047619047618784e-06,-9.631257631257631076e-05,2.754578754578754392e-05,-7.228327228327229141e-06
2.637362637362637076e-05,1.855921855921855758e-05,3.496947496947496153e-05,-8.029304029304029221e-05,1.953601953601946625e-07,-1.367521367521368196e-06,1.367521367521366926e-06,2.148962148962148540e-06,-2.148962148962149811e-06,1.953601953601946625e-07,7.619047619047617936e-06,2.168498168498168149e-05,1.953601953601946625e-07,-6.837606837606837804e-06,-9.181929181929182436e-06,2.324786324786324684e-05,1.347985347985347952e-05,1.953601953601946625e-07,-3.106227106227106002e-05,3.223443223443222980e-05,4.884004884004883662e-06,1.465201465201465099e-05,1.953601953601946625e-07,-3.457875457875457612e-05,-3.321123321123321703e-06,-8.810744810744810878e-05,1.308913308913308903e-05,4.884004884004883662e-06
3.223443223443222980e-05,2.793650793650793610e-05,2.051282051282051172e-05,-8.693528693528693901e-05,1.953601953601946625e-07,1.953601953601946625e-07,6.446886446886445620e-06,-1.953601953601960389e-07,-1.113553113553113658e-05,1.953601953601946625e-07,8.791208791208790252e-06,1.582417582417582245e-05,1.953601953601946625e-07,-9.181929181929182436e-06,1.367521367521366926e-06,1.855921855921855758e-05,1.074481074481074270e-05,1.953601953601946625e-07,-2.832722832722832829e-05,1.074481074481074270e-05,2.637362637362637076e-05,1.230769230769230635e-05,1.953601953601946625e-07,-2.012210012210011953e-05,-2.148962148962149811e-06,-1.010012210012209899e-04,-1.191697191697191756e-05,2.637362637362637076e-05
3.536019536019536049e-05,1.973137973137973074e-05,1.973137973137973074e-05,-9.240537240537240247e-05,1.953601953601946625e-07,-2.930402930402930790e-06,9.572649572649571232e-06,-3.711843711843712193e-06,-1.699633699633699562e-05,1.953601953601946625e-07,4.102564102564101835e-06,1.152625152625152537e-05,1.953601953601946625e-07,-1.621489621489621464e-05,2.930402930402929519e-06,1.269841269841269684e-05,8.791208791208790252e-06,1.953601953601946625e-07,-3.184371184371184439e-05,-8.009768009768009273e-06,4.122100122100122292e-05,8.009768009768009273e-06,1.953601953601946625e-07,-1.934065934065934194e-05,6.056166056166055131e-06,-1.131135531135531001e-04,-2.520146520146520098e-05,4.122100122100122292e-05
3.731379731379731463e-05,3.106227106227106002e-05,7.619047619047617936e-06,-1.010012210012209899e-04,1.953601953601946625e-07,-9.181929181929182436e-06,1.465201465201465099e-05,-4.884004884004884509e-06,-2.285714285714285804e-05,1.953601953601946625e-07,-1.758241758241758898e-06,9.181929181929180742e-06,1.953601953601946625e-07,-2.012210012210011953e-05,-2.539682539682540300e-06,1.269841269841269684e-05,5.274725274725273304e-06,1.953601953601946625e-07,-3.457875457875457612e-05,-8.009768009768009273e-06,3.301587301587300739e-05,4.102564102564101835e-06,1.953601953601946625e-07,-7.228327228327229141e-06,-9.963369963369963416e-06,-1.107692307692307741e-04,-2.129426129426129270e-05,3.301587301587300739e-05
4.434676434676434683e-05,3.457875457875457612e-05,3.711843711843710922e-06,-1.150671550671550678e-04,1.953601953601946625e-07,-1.738705738705738780e-05,1.660561660561660343e-05,-1.367521367521368196e-06,-2.715506715506715174e-05,1.953601953601946625e-07,-6.837606837606837804e-06,5.665445665445664641e-06,1.953601953601946625e-07,-2.754578754578754731e-05,-8.791208791208791947e-06,7.619047619047617936e-06,7.228327228327227447e-06,1.953601953601946625e-07,-4.200244200244200051e-05,2.051282051282051172e-05,-1.758241758241758898e-06,5.860805860805853110e-07,1.953601953601946625e-07,-3.321123321123321703e-06,-6.056166056166056825e-06,-1.189743589743589761e-04,1.953601953601946625e-07,-1.758241758241758898e-06
4.278388278388277810e-05,4.669108669108668638e-05,1.953601953601946625e-07,-1.240537240537240406e-04,1.953601953601946625e-07,-2.442002442002442000e-05,2.090354090354090390e-05,-2.148962148962149811e-06,-2.559218559218559317e-05,1.953601953601946625e-07,-1.074481074481074439e-05,5.274725274725273304e-06,1.953601953601946625e-07,-2.989010989010989025e-05,-2.090354090354090390e-05,8.791208791208790252e-06,2.148962148962148540e-06,1.953601953601946625e-07,-4.200244200244200051e-05,4.395604395604395465e-05,-3.653235653235653026e-05,-4.884004884004884509e-06,1.953601953601946625e-07,1.953601953601946625e-07,-4.884004884004884509e-06,-1.201465201465201459e-04,2.207570207570207368e-05,-3.653235653235653026e-05
5.020757020757020249e-05,4.825396825396824834e-05,-7.228327228327229141e-06,-1.224908424908424990e-04,1.953601953601946625e-07,-3.067155067155067461e-05,2.363858363858363564e-05,-2.539682539682540300e-06,-1.934065934065934194e-05,1.953601953601946625e-07,-1.777777777777777660e-05,6.837606837606836957e-06,1.953601953601946625e-07,-3.145299145299145221e-05,-2.871794871794871708e-05,6.446886446886445620e-06,-2.148962148962149811e-06,1.953601953601946625e-07,-3.848595848595848441e-05,5.958485958485958101e-05,-6.583638583638584240e-05,-1.152625152625152537e-05,1.953601953601946625e-07,7.619047619047617936e-06,-1.465201465201465268e-05,-1.056898656898656825e-04,4.083028083028082396e-05,-6.583638583638584240e-05
6.075702075702075079e-05,6.310134310134309034e-05,-1.621489621489621464e-05,-1.342124542124542238e-04,1.953601953601946625e-07,-3.340659340659340635e-05,3.067155067155066784e-05,-1.758241758241758898e-06,-1.934065934065934194e-05,1.953601953601946625e-07,-2.012210012210011953e-05,8.791208791208790252e-06,1.953601953601946625e-07,-3.418803418803418394e-05,-2.637362637362637415e-05,5.665445665445664641e-06,-1.152625152625152537e-05,1.953601953601946625e-07,-3.379731379731379853e-05,3.653235653235653026e-05,-5.059829059829059467e-05,-1.816849816849816539e-05,1.953601953601946625e-07,1.660561660561660343e-05,-1.777777777777777660e-05,-1.076434676434676367e-04,1.504273504273504148e-05,-5.059829059829059467e-05
7.365079365079364542e-05,6.231990231990231952e-05,-9.963369963369963416e-06,-1.389010989010988758e-04,1.953601953601946625e-07,-3.457875457875457612e-05,3.653235653235653026e-05,-5.860805860805867933e-07,-1.152625152625152537e-05,1.953601953601946625e-07,-1.777777777777777660e-05,1.152625152625152537e-05,1.953601953601946625e-07,-4.004884004884004637e-05,-2.598290598290598196e-05,4.102564102564101835e-06,-1.347985347985347952e-05,1.953601953601946625e-07,-3.184371184371184439e-05,1.191697191697191417e-05,-3.028083028083027904e-05,-2.402930402930402782e-05,1.953601953601946625e-07,1.035409035409035221e-05,2.539682539682539030e-06,-1.131135531135531001e-04,-1.777777777777777660e-05,-3.028083028083027904e-05
8.498168498168497131e-05,4.825396825396824834e-05,-4.493284493284494019e-06,-1.389010989010988758e-04,1.953601953601946625e-07,-4.004884004884004637e-05,3.692307692307691567e-05,-5.860805860805867933e-07,-4.102564102564102683e-06,1.953601953601946625e-07,-1.816849816849816539e-05,1.387057387057386831e-05,1.953601953601946625e-07,-4.786324786324786294e-05,-2.246642246642246586e-05,2.539682539682539030e-06,-9.572649572649572926e-06,1.953601953601946625e-07,-2.989010989010989025e-05,5.665445665445664641e-06,-2.324786324786324684e-05,-2.949938949938950145e-05,1.953601953601946625e-07,4.884004884004883662e-06,1.973137973137973074e-05,-1.240537240537240406e-04,-2.051282051282051511e-05,-2.324786324786324684e-05
9.396825396825395766e-05,7.169719169719169127e-05,-2.754578754578754731e-05,-1.439804639804639810e-04,1.953601953601946625e-07,-3.770451770451770682e-05,3.536019536019536049e-05,-1.953601953601960389e-07,-1.758241758241758898e-06,1.953601953601946625e-07,-1.855921855921856096e-05,1.699633699633699562e-05,1.953601953601946625e-07,-4.708180708180708534e-05,-2.012210012210011953e-05,2.148962148962148540e-06,-1.113553113553113658e-05,1.953601953601946625e-07,-2.989010989010989025e-05,2.051282051282051172e-05,-3.301587301587302094e-05,-3.340659340659340635e-05,1.953601953601946625e-07,2.793650793650793610e-05,-6.446886446886447315e-06,-1.338217338217338249e-04,-3.321123321123321703e-06,-3.301587301587302094e-05
9.904761904761904927e-05,5.919413919413918883e-05,-1.504273504273504148e-05,-1.486691086691086872e-04,1.953601953601946625e-07,-3.926739926739926877e-05,2.910866910866910588e-05,3.321123321123320433e-06,5.860805860805853110e-07,1.953601953601946625e-07,-1.504273504273504148e-05,2.012210012210011953e-05,1.953601953601946625e-07,-4.825396825396824834e-05,-1.816849816849816539e-05,1.758241758241757415e-06,-1.387057387057387001e-05,1.953601953601946625e-07,-3.809523809523809222e-05,3.106227106227106002e-05,-3.926739926739926877e-05,-3.184371184371184439e-05,1.953601953601946625e-07,1.543345543345543027e-05,1.738705738705738441e-05,-1.529670329670329673e-04,-5.665445665445665488e-06,-3.926739926739926877e-05
9.982905982905982008e-05,3.887667887667886981e-05,-8.009768009768009273e-06,-1.494505494505494580e-04,1.953601953601946625e-07,-4.395604395604395465e-05,2.012210012210011953e-05,2.148962148962148540e-06,3.711843711843710922e-06,1.953601953601946625e-07,-1.543345543345543366e-05,1.738705738705738441e-05,1.953601953601946625e-07,-4.747252747252747075e-05,-1.504273504273504148e-05,-2.539682539682540300e-06,-1.426129426129426219e-05,1.953601953601946625e-07,-3.379731379731379853e-05,1.269841269841269684e-05,-2.910866910866910588e-05,-3.067155067155067461e-05,1.953601953601946625e-07,8.400488400488398069e-06,2.871794871794871708e-05,-1.674236874236874307e-04,-1.855921855921856096e-05,-2.910866910866910588e-05
9.631257631257631076e-05,4.278388278388277810e-05,-2.832722832722832829e-05,-1.494505494505494580e-04,1.953601953601946625e-07,-4.708180708180708534e-05,9.572649572649571232e-06,5.860805860805853110e-07,-1.758241758241758898e-06,1.953601953601946625e-07,-1.699633699633699562e-05,1.230769230769230635e-05,1.953601953601946625e-07,-4.317460317460317706e-05,-1.074481074481074439e-05,-8.400488400488399763e-06,-2.207570207570207368e-05,1.953601953601946625e-07,-3.340659340659340635e-05,1.152625152625152537e-05,-2.598290598290598196e-05,-3.731379731379731463e-05,1.953601953601946625e-07,2.871794871794871708e-05,4.493284493284492325e-06,-1.685958485958485734e-04,-1.894993894993894976e-05,-2.598290598290598196e-05
9.006105006105004937e-05,2.324786324786324684e-05,-2.481074481074480880e-05,-1.494505494505494580e-04,1.953601953601946625e-07,-5.333333333333333318e-05,1.367521367521366926e-06,1.953601953601946625e-07,-7.228327228327229141e-06,1.953601953601946625e-07,-1.582417582417582245e-05,6.837606837606836957e-06,1.953601953601946625e-07,-5.098901098901099363e-05,-1.113553113553113658e-05,-7.619047619047618784e-06,-2.520146520146520098e-05,1.953601953601946625e-07,-3.965811965811965418e-05,6.446886446886445620e-06,-2.129426129426129270e-05,-4.043956043956043855e-05,1.953601953601946625e-07,2.520146520146520098e-05,1.465201465201465099e-05,-1.768009768009767889e-04,-2.520146520146520098e-05,-2.129426129426129270e-05
8.302808302808303072e-05,-1.074481074481074439e-05,-1.777777777777777660e-05,-1.373382173382173342e-04,1.953601953601946625e-07,-6.075702075702075079e-05,-6.837606837606837804e-06,-5.274725274725274999e-06,-8.009768009768009273e-06,1.953601953601946625e-07,-1.738705738705738780e-05,3.711843711843710922e-06,1.953601953601946625e-07,-5.255189255189254881e-05,-1.582417582417582245e-05,9.768009768009760124e-07,-2.598290598290598196e-05,1.953601953601946625e-07,-3.692307692307692245e-05,3.321123321123320433e-06,-2.168498168498168488e-05,-3.809523809523809222e-05,1.953601953601946625e-07,1.816849816849816539e-05,3.418803418803418394e-05,-1.826617826617826649e-04,-2.715506715506715174e-05,-2.168498168498168488e-05
7.482295482295482874e-05,-2.989010989010989025e-05,-2.715506715506715174e-05,-1.209279609279609167e-04,1.953601953601946625e-07,-6.466422466422465907e-05,-1.152625152625152537e-05,-1.152625152625152537e-05,-1.269841269841269854e-05,1.953601953601946625e-07,-1.660561660561660682e-05,2.148962148962148540e-06,1.953601953601946625e-07,-4.434676434676434683e-05,-1.660561660561660682e-05,5.274725274725273304e-06,-2.832722832722832829e-05,1.953601953601946625e-07,-4.122100122100122292e-05,4.043956043956043855e-05,-4.747252747252747075e-05,-3.496947496947496831e-05,1.953601953601946625e-07,2.754578754578754392e-05,2.715506715506715174e-05,-1.861782661782661742e-04,1.347985347985347952e-05,-4.747252747252747075e-05
6.935286935286933817e-05,-4.551892551892551661e-05,-3.184371184371184439e-05,-1.068620268620268658e-04,1.953601953601946625e-07,-6.349206349206348930e-05,-1.308913308913309072e-05,-1.035409035409035391e-05,-2.481074481074480880e-05,1.953601953601946625e-07,-1.504273504273504148e-05,4.102564102564101835e-06,1.953601953601946625e-07,-3.496947496947496831e-05,-1.465201465201465268e-05,1.465201465201465099e-05,-3.770451770451770682e-05,1.953601953601946625e-07,-4.434676434676434683e-05,3.653235653235653026e-05,-3.067155067155067461e-05,-3.379731379731379853e-05,1.953601953601946625e-07,3.223443223443222980e-05,2.559218559218558978e-05,-1.889133089133089127e-04,1.074481074481074270e-05,-3.067155067155067461e-05
6.153846153846153516e-05,-5.997557997557997320e-05,-3.223443223443222980e-05,-9.240537240537240247e-05,1.953601953601946625e-07,-6.114774114774114975e-05,-1.465201465201465268e-05,-1.035409035409035391e-05,-3.418803418803418394e-05,1.953601953601946625e-07,-1.269841269841269854e-05,7.619047619047617936e-06,1.953601953601946625e-07,-2.559218559218559317e-05,-1.035409035409035391e-05,2.129426129426129270e-05,-4.434676434676434683e-05,1.953601953601946625e-07,-4.630036630036629420e-05,9.963369963369963416e-06,4.102564102564101835e-06,-2.715506715506715174e-05,1.953601953601946625e-07,3.262515262515262198e-05,2.832722832722832490e-05,-1.885225885225885138e-04,-1.660561660561660682e-05,4.102564102564101835e-06
4.903540903540903271e-05,-7.052503052503052150e-05,-4.043956043956043855e-05,-7.638583638583638393e-05,1.953601953601946625e-07,-5.919413919413919561e-05,-2.012210012210011953e-05,-1.230769230769230805e-05,-4.434676434676434683e-05,1.953601953601946625e-07,-9.572649572649572926e-06,8.791208791208790252e-06,1.953601953601946625e-07,-8.009768009768009273e-06,-3.321123321123321703e-06,1.387057387057386831e-05,-4.903540903540903949e-05,1.953601953601946625e-07,-4.942612942612942489e-05,5.665445665445664641e-06,1.347985347985347952e-05,-1.621489621489621464e-05,1.953601953601946625e-07,4.083028083028082396e-05,1.347985347985347952e-05,-1.791452991452991284e-04,-1.621489621489621464e-05,1.347985347985347952e-05
3.457875457875457612e-05,-6.935286935286933817e-05,-5.137973137973137904e-05,-6.739926739926739758e-05,1.953601953601946625e-07,-4.864468864468864053e-05,-2.989010989010989025e-05,-1.230769230769230805e-05,-6.075702075702075079e-05,1.953601953601946625e-07,-8.400488400488399763e-06,3.321123321123320433e-06,1.953601953601946625e-07,-5.665445665445665488e-06,4.102564102564101835e-06,7.228327228327227447e-06,-4.825396825396824834e-05,1.953601953601946625e-07,-4.903540903540903949e-05,3.321123321123320433e-06,1.426129426129426050e-05,-1.191697191697191756e-05,1.953601953601946625e-07,5.177045177045177122e-05,-5.665445665445665488e-06,-1.631257631257630963e-04,-8.009768009768009273e-06,1.426129426129426050e-05
1.543345543345543027e-05,-7.521367521367521415e-05,-5.255189255189254881e-05,-5.333333333333333318e-05,1.953601953601946625e-07,-4.004884004884004637e-05,-3.653235653235653026e-05,-1.855921855921856096e-05,-6.818070818070818195e-05,1.953601953601946625e-07,-4.884004884004884509e-06,-6.837606837606837804e-06,1.953601953601946625e-07,-4.102564102564102683e-06,6.056166056166055131e-06,-3.711843711843712193e-06,-3.926739926739926877e-05,1.953601953601946625e-07,-5.255189255189254881e-05,3.711843711843710922e-06,6.056166056166055131e-06,1.953601953601946625e-07,1.953601953601946625e-07,5.294261294261293422e-05,-6.446886446886447315e-06,-1.416361416361416414e-04,-8.009768009768009273e-06,6.056166056166055131e-06
4.493284493284492325e-06,-8.967032967032966396e-05,-4.708180708180708534e-05,-4.708180708180708534e-05,1.953601953601946625e-07,-2.949938949938950145e-05,-4.161172161172160832e-05,-2.559218559218559317e-05,-8.029304029304029221e-05,1.953601953601946625e-07,-1.953601953601960389e-07,-1.543345543345543366e-05,1.953601953601946625e-07,-2.539682539682540300e-06,1.191697191697191417e-05,-1.152625152625152537e-05,-4.004884004884004637e-05,1.953601953601946625e-07,-4.786324786324786294e-05,3.184371184371184439e-05,-3.145299145299145221e-05,4.493284493284492325e-06,1.953601953601946625e-07,4.747252747252747075e-05,3.321123321123320433e-06,-1.267887667887667791e-04,2.598290598290598196e-05,-3.145299145299145221e-05
-6.837606837606837804e-06,-9.474969474969475558e-05,-4.317460317460317706e-05,-3.887667887667887659e-05,1.953601953601946625e-07,-1.855921855921856096e-05,-4.278388278388277810e-05,-2.871794871794871708e-05,-9.279609279609278788e-05,1.953601953601946625e-07,2.930402930402929519e-06,-2.207570207570207368e-05,1.953601953601946625e-07,-3.321123321123321703e-06,2.207570207570207368e-05,-1.035409035409035391e-05,-5.216117216117215663e-05,1.953601953601946625e-07,-4.630036630036629420e-05,1.465201465201465099e-05,-1.308913308913309072e-05,1.953601953601946625e-07,1.953601953601946625e-07,4.356532356532356247e-05,-5.860805860805867933e-07,-1.041269841269841273e-04,1.894993894993894976e-05,-1.308913308913309072e-05
-1.582417582417582245e-05,-7.599511599511598497e-05,-5.411477411477411077e-05,-2.793650793650793610e-05,1.953601953601946625e-07,-7.619047619047618784e-06,-3.770451770451770682e-05,-3.106227106227106002e-05,-9.670329670329669617e-05,1.953601953601946625e-07,8.791208791208790252e-06,-2.715506715506715174e-05,1.953601953601946625e-07,-1.367521367521368196e-06,3.028083028083027904e-05,-5.665445665445665488e-06,-6.583638583638584240e-05,1.953601953601946625e-07,-4.239316239316239269e-05,-1.035409035409035391e-05,1.308913308913308903e-05,-3.321123321123321703e-06,1.953601953601946625e-07,5.450549450549450295e-05,-6.446886446886447315e-06,-8.771672771672770982e-05,-1.367521367521368196e-06,1.308913308913308903e-05
-2.012210012210011953e-05,-5.841269841269841124e-05,-6.778998778998778299e-05,-1.738705738705738780e-05,1.953601953601946625e-07,-1.953601953601960389e-07,-3.653235653235653026e-05,-3.223443223443222980e-05,-9.396825396825397121e-05,1.953601953601946625e-07,1.660561660561660343e-05,-3.262515262515262198e-05,1.953601953601946625e-07,6.837606837606836957e-06,3.457875457875457612e-05,-5.665445665445665488e-06,-7.365079365079364542e-05,1.953601953601946625e-07,-3.614163614163613808e-05,-9.768009768009774947e-07,8.009768009768009273e-06,-6.837606837606837804e-06,1.953601953601946625e-07,6.818070818070818195e-05,-9.572649572649572926e-06,-7.794871794871795266e-05,6.837606837606836957e-06,8.009768009768009273e-06
-2.598290598290598196e-05,-2.637362637362637415e-05,-9.474969474969475558e-05,-6.446886446886447315e-06,1.953601953601946625e-07,1.113553113553113488e-05,-3.926739926739926877e-05,-3.496947496947496831e-05,-9.084249084249084729e-05,1.953601953601946625e-07,1.973137973137973074e-05,-3.926739926739926877e-05,1.953601953601946625e-07,1.738705738705738441e-05,2.871794871794871708e-05,-8.791208791208791947e-06,-7.404151404151404438e-05,1.953601953601946625e-07,-3.262515262515262198e-05,1.230769230769230635e-05,-8.009768009768009273e-06,-7.228327228327229141e-06,1.953601953601946625e-07,9.514041514041514098e-05,-4.395604395604395465e-05,-6.153846153846153516e-05,3.301587301587300739e-05,-8.009768009768009273e-06
-2.637362637362637415e-05,-6.056166056166056825e-06,-1.076434676434676367e-04,3.321123321123320433e-06,1.953601953601946625e-07,2.676434676434676294e-05,-4.043956043956043855e-05,-4.083028083028083073e-05,-8.146520146520146199e-05,1.953601953601946625e-07,2.402930402930402782e-05,-4.669108669108668638e-05,1.953601953601946625e-07,2.559218559218558978e-05,2.246642246642246247e-05,-1.543345543345543366e-05,-6.622710622710622781e-05,1.953601953601946625e-07,-3.223443223443222980e-05,1.543345543345543027e-05,-1.308913308913309072e-05,-2.930402930402930790e-06,1.953601953601946625e-07,1.080341880341880356e-04,-5.763125763125762687e-05,-5.841269841269841124e-05,4.942612942612942489e-05,-1.308913308913309072e-05
-1.621489621489621464e-05,1.621489621489621464e-05,-1.033455433455433430e-04,-1.035409035409035391e-05,1.953601953601946625e-07,4.903540903540903271e-05,-3.301587301587302094e-05,-4.395604395604395465e-05,-8.459096459096458590e-05,1.953601953601946625e-07,3.340659340659340635e-05,-5.059829059829059467e-05,1.953601953601946625e-07,3.965811965811965418e-05,2.090354090354090390e-05,-1.543345543345543366e-05,-7.326007326007324646e-05,1.953601953601946625e-07,-2.676434676434676294e-05,4.981684981684981708e-05,-3.770451770451770682e-05,-1.269841269841269854e-05,1.953601953601946625e-07,1.037362637362637284e-04,-6.075702075702075079e-05,-4.825396825396824834e-05,7.755799755799755370e-05,-3.770451770451770682e-05
-1.074481074481074439e-05,2.168498168498168149e-05,-9.396825396825397121e-05,-8.400488400488399763e-06,1.953601953601946625e-07,6.153846153846153516e-05,-2.481074481074480880e-05,-4.981684981684981708e-05,-7.716727716727715474e-05,1.953601953601946625e-07,4.043956043956043855e-05,-5.606837606837606491e-05,1.953601953601946625e-07,4.551892551892551661e-05,1.777777777777777660e-05,-2.051282051282051511e-05,-6.661782661782661322e-05,1.953601953601946625e-07,-1.777777777777777660e-05,2.207570207570207368e-05,-1.465201465201465268e-05,-1.191697191697191756e-05,1.953601953601946625e-07,9.435897435897435662e-05,-5.802197802197801905e-05,-3.496947496947496831e-05,5.802197802197801905e-05,-1.465201465201465268e-05
-9.768009768009774947e-07,2.637362637362637076e-05,-7.912087912087912244e-05,-2.539682539682540300e-06,1.953601953601946625e-07,7.677655677655676933e-05,-1.074481074481074439e-05,-4.942612942612942489e-05,-7.130647130647130587e-05,1.953601953601946625e-07,4.981684981684981708e-05,-6.036630036630036538e-05,1.953601953601946625e-07,4.630036630036629420e-05,2.363858363858363564e-05,-2.129426129426129270e-05,-6.427350427350427367e-05,1.953601953601946625e-07,-1.347985347985347952e-05,2.930402930402929519e-06,1.347985347985347952e-05,-1.777777777777777660e-05,1.953601953601946625e-07,7.951159951159950784e-05,-5.489621489621489514e-05,-2.051282051282051511e-05,4.747252747252747075e-05,1.347985347985347952e-05
7.619047619047617936e-06,5.137973137973137904e-05,-8.107448107448106303e-05,2.148962148962148540e-06,1.953601953601946625e-07,8.693528693528693901e-05,4.884004884004883662e-06,-4.356532356532356247e-05,-6.583638583638584240e-05,1.953601953601946625e-07,6.153846153846153516e-05,-6.075702075702075079e-05,1.953601953601946625e-07,5.020757020757020249e-05,3.106227106227106002e-05,-1.738705738705738780e-05,-6.935286935286933817e-05,1.953601953601946625e-07,-2.148962148962149811e-06,5.274725274725273304e-06,1.855921855921855758e-05,-2.637362637362637415e-05,1.953601953601946625e-07,8.146520146520146199e-05,-5.958485958485958101e-05,-3.321123321123321703e-06,4.786324786324786294e-05,1.855921855921855758e-05
9.963369963369963416e-06,4.473748473748473224e-05,-6.427350427350427367e-05,1.816849816849816539e-05,1.953601953601946625e-07,8.341880341880341613e-05,1.465201465201465099e-05,-3.653235653235653026e-05,-5.059829059829059467e-05,1.953601953601946625e-07,7.169719169719169127e-05,-5.645909645909645710e-05,1.953601953601946625e-07,4.473748473748473224e-05,3.301587301587300739e-05,-1.191697191697191756e-05,-6.544566544566544344e-05,1.953601953601946625e-07,3.711843711843710922e-06,1.347985347985347952e-05,8.400488400488398069e-06,-2.559218559218559317e-05,1.953601953601946625e-07,6.466422466422465907e-05,-4.473748473748473224e-05,1.699633699633699562e-05,5.411477411477411077e-05,8.400488400488398069e-06
1.504273504273504148e-05,4.942612942612942489e-05,-5.333333333333333318e-05,3.301587301587300739e-05,1.953601953601946625e-07,8.498168498168497131e-05,2.402930402930402782e-05,-2.520146520146520098e-05,-3.770451770451770682e-05,1.953601953601946625e-07,8.185592185592184739e-05,-5.177045177045177122e-05,1.953601953601946625e-07,4.200244200244200051e-05,3.223443223443222980e-05,-7.228327228327229141e-06,-5.724053724053724146e-05,1.953601953601946625e-07,8.791208791208790252e-06,3.106227106227106002e-05,-8.400488400488399763e-06,-2.129426129426129270e-05,1.953601953601946625e-07,5.372405372405372536e-05,-4.825396825396824834e-05,3.848595848595848441e-05,7.286935286935286105e-05,-8.400488400488399763e-06
2.520146520146520098e-05,5.645909645909645710e-05,-4.356532356532356247e-05,3.848595848595848441e-05,1.953601953601946625e-07,8.810744810744810878e-05,3.653235653235653026e-05,-1.504273504273504148e-05,-3.028083028083027904e-05,1.953601953601946625e-07,9.045177045177044833e-05,-4.669108669108668638e-05,1.953601953601946625e-07,4.473748473748473224e-05,3.809523809523809222e-05,-7.228327228327229141e-06,-5.489621489621489514e-05,1.953601953601946625e-07,1.191697191697191417e-05,3.145299145299145221e-05,-3.321123321123321703e-06,-1.973137973137973074e-05,1.953601953601946625e-07,4.395604395604395465e-05,-4.161172161172160832e-05,4.786324786324786294e-05,6.153846153846153516e-05,-3.321123321123321703e-06
3.536019536019536049e-05,4.864468864468864053e-05,-2.637362637362637415e-05,4.004884004884004637e-05,1.953601953601946625e-07,8.302808302808303072e-05,4.356532356532356247e-05,-7.619047619047618784e-06,-1.934065934065934194e-05,1.953601953601946625e-07,9.162393162393161811e-05,-4.004884004884004637e-05,1.953601953601946625e-07,5.059829059829059467e-05,3.653235653235653026e-05,-6.056166056166056825e-06,-4.903540903540903949e-05,1.953601953601946625e-07,1.777777777777777660e-05,3.731379731379731463e-05,-9.963369963369963416e-06,-1.347985347985347952e-05,1.953601953601946625e-07,2.676434676434676294e-05,-1.973137973137973074e-05,5.059829059829059467e-05,5.450549450549450295e-05,-9.963369963369963416e-06
4.473748473748473224e-05,5.567765567765567950e-05,-3.887667887667887659e-05,4.825396825396824834e-05,1.953601953601946625e-07,7.951159951159950784e-05,4.200244200244200051e-05,-6.837606837606837804e-06,-3.321123321123321703e-06,1.953601953601946625e-07,8.849816849816849419e-05,-3.731379731379731463e-05,1.953601953601946625e-07,4.590964590964590879e-05,3.418803418803418394e-05,-1.347985347985347952e-05,-3.145299145299145221e-05,1.953601953601946625e-07,1.777777777777777660e-05,2.402930402930402782e-05,-5.665445665445665488e-06,-1.758241758241758898e-06,1.953601953601946625e-07,3.926739926739926877e-05,-2.520146520146520098e-05,4.708180708180707857e-05,4.161172161172160832e-05,-5.665445665445665488e-06
5.606837606837606491e-05,7.286935286935286105e-05,-4.747252747252747075e-05,3.653235653235653026e-05,1.953601953601946625e-07,7.951159951159950784e-05,4.551892551892551661e-05,-3.321123321123321703e-06,-2.148962148962149811e-06,1.953601953601946625e-07,8.029304029304029221e-05,-3.457875457875457612e-05,1.953601953601946625e-07,3.965811965811965418e-05,4.200244200244200051e-05,-1.582417582417582245e-05,-2.989010989010989025e-05,1.953601953601946625e-07,1.855921855921855758e-05,1.894993894993894976e-05,3.321123321123320433e-06,-5.665445665445665488e-06,1.953601953601946625e-07,4.786324786324786294e-05,-3.692307692307692245e-05,4.161172161172160832e-05,3.457875457875457612e-05,3.321123321123320433e-06
6.427350427350427367e-05,7.326007326007324646e-05,-4.239316239316239269e-05,2.715506715506715174e-05,1.953601953601946625e-07,6.935286935286933817e-05,4.239316239316239269e-05,5.860805860805853110e-07,9.572649572649571232e-06,1.953601953601946625e-07,6.935286935286933817e-05,-3.145299145299145221e-05,1.953601953601946625e-07,4.083028083028082396e-05,2.910866910866910588e-05,-1.387057387057387001e-05,-1.855921855921856096e-05,1.953601953601946625e-07,2.598290598290598196e-05,9.181929181929180742e-06,9.572649572649571232e-06,-8.009768009768009273e-06,1.953601953601946625e-07,4.278388278388277810e-05,-2.246642246642246586e-05,3.106227106227106002e-05,1.973137973137973074e-05,9.572649572649571232e-06
6.231990231990231952e-05,7.873015873015873703e-05,-2.793650793650793610e-05,1.855921855921855758e-05,1.953601953601946625e-07,6.036630036630036538e-05,4.200244200244200051e-05,3.711843711843710922e-06,2.442002442002441662e-05,1.953601953601946625e-07,5.997557997557997320e-05,-2.481074481074480880e-05,1.953601953601946625e-07,3.614163614163613808e-05,1.894993894993894976e-05,-8.791208791208791947e-06,-5.665445665445665488e-06,1.953601953601946625e-07,2.910866910866910588e-05,-1.308913308913309072e-05,3.145299145299145221e-05,-6.056166056166056825e-06,1.953601953601946625e-07,2.832722832722832490e-05,-1.777777777777777660e-05,2.832722832722832490e-05,-4.102564102564102683e-06,3.145299145299145221e-05
6.114774114774113620e-05,9.631257631257631076e-05,-2.051282051282051511e-05,1.035409035409035221e-05,1.953601953601946625e-07,5.411477411477411077e-05,4.669108669108668638e-05,1.113553113553113488e-05,3.536019536019536049e-05,1.953601953601946625e-07,4.864468864468864053e-05,-1.660561660561660682e-05,1.953601953601946625e-07,3.184371184371184439e-05,1.426129426129426050e-05,-9.768009768009774947e-07,3.321123321123320433e-06,1.953601953601946625e-07,2.949938949938949467e-05,-3.711843711843712193e-06,3.067155067155066784e-05,-8.009768009768009273e-06,1.953601953601946625e-07,2.090354090354090390e-05,-3.887667887667887659e-05,3.067155067155066784e-05,6.446886446886445620e-06,3.067155067155066784e-05
6.231990231990231952e-05,9.435897435897435662e-05,-1.953601953601960389e-07,6.446886446886445620e-06,1.953601953601946625e-07,4.903540903540903271e-05,5.216117216117215663e-05,1.699633699633699562e-05,4.473748473748473224e-05,1.953601953601946625e-07,3.848595848595848441e-05,-6.446886446886447315e-06,1.953601953601946625e-07,3.575091575091575267e-05,6.056166056166055131e-06,3.711843711843710922e-06,1.269841269841269684e-05,1.953601953601946625e-07,2.871794871794871708e-05,-2.930402930402930790e-06,3.223443223443222980e-05,9.768009768009760124e-07,1.953601953601946625e-07,5.860805860805853110e-07,-2.285714285714285804e-05,1.660561660561660343e-05,-1.953601953601960389e-07,3.223443223443222980e-05
6.271062271062270493e-05,9.084249084249084729e-05,4.493284493284492325e-06,8.400488400488398069e-06,1.953601953601946625e-07,4.590964590964590879e-05,5.489621489621488836e-05,1.621489621489621464e-05,4.981684981684981708e-05,1.953601953601946625e-07,3.340659340659340635e-05,1.758241758241757415e-06,1.953601953601946625e-07,2.129426129426129270e-05,1.113553113553113488e-05,6.056166056166055131e-06,2.481074481074480880e-05,1.953601953601946625e-07,1.738705738705738441e-05,9.768009768009760124e-07,3.887667887667886981e-05,6.446886446886445620e-06,1.953601953601946625e-07,-4.102564102564102683e-06,-1.387057387057387001e-05,3.321123321123320433e-06,-7.228327228327229141e-06,3.887667887667886981e-05
6.114774114774113620e-05,1.068620268620268658e-04,-1.543345543345543366e-05,1.191697191697191417e-05,1.953601953601946625e-07,4.434676434676434683e-05,5.606837606837606491e-05,1.699633699633699562e-05,4.669108669108668638e-05,1.953601953601946625e-07,2.949938949938949467e-05,7.228327228327227447e-06,1.953601953601946625e-07,8.791208791208790252e-06,1.582417582417582245e-05,4.884004884004883662e-06,3.614163614163613808e-05,1.953601953601946625e-07,1.152625152625152537e-05,9.963369963369963416e-06,3.301587301587300739e-05,1.074481074481074270e-05,1.953601953601946625e-07,1.582417582417582245e-05,-3.692307692307692245e-05,-9.181929181929182436e-06,5.665445665445664641e-06,3.301587301587300739e-05
6.036630036630036538e-05,9.592185592185591180e-05,-1.152625152625152537e-05,1.387057387057386831e-05,1.953601953601946625e-07,4.747252747252747075e-05,5.645909645909645710e-05,1.738705738705738441e-05,3.731379731379731463e-05,1.953601953601946625e-07,2.481074481074480880e-05,1.074481074481074270e-05,1.953601953601946625e-07,6.446886446886445620e-06,1.269841269841269684e-05,9.181929181929180742e-06,3.887667887667886981e-05,1.953601953601946625e-07,5.665445665445664641e-06,6.446886446886445620e-06,3.965811965811965418e-05,1.504273504273504148e-05,1.953601953601946625e-07,1.191697191697191417e-05,-3.575091575091575267e-05,-1.777777777777777660e-05,3.321123321123320433e-06,3.965811965811965418e-05
5.606837606837606491e-05,9.123321123321123270e-05,-1.074481074481074439e-05,1.582417582417582245e-05,1.953601953601946625e-07,4.278388278388277810e-05,5.763125763125762687e-05,1.973137973137973074e-05,3.184371184371184439e-05,1.953601953601946625e-07,2.324786324786324684e-05,1.347985347985347952e-05,1.953601953601946625e-07,1.035409035409035221e-05,-2.539682539682540300e-06,2.129426129426129270e-05,3.887667887667886981e-05,1.953601953601946625e-07,3.321123321123320433e-06,1.152625152625152537e-05,3.575091575091575267e-05,1.738705738705738441e-05,1.953601953601946625e-07,1.113553113553113488e-05,-2.129426129426129270e-05,-2.910866910866910588e-05,-5.860805860805867933e-07,3.575091575091575267e-05
4.395604395604395465e-05,7.326007326007324646e-05,6.446886446886445620e-06,2.012210012210011953e-05,1.953601953601946625e-07,3.106227106227106002e-05,5.919413919413918883e-05,2.285714285714285804e-05,3.067155067155066784e-05,1.953601953601946625e-07,2.051282051282051172e-05,1.699633699633699562e-05,1.953601953601946625e-07,-2.148962148962149811e-06,-4.493284493284494019e-06,2.520146520146520098e-05,4.473748473748473224e-05,1.953601953601946625e-07,-4.102564102564102683e-06,9.181929181929180742e-06,3.770451770451770682e-05,2.012210012210011953e-05,1.953601953601946625e-07,-6.056166056166056825e-06,-1.113553113553113658e-05,-2.559218559218559317e-05,-9.768009768009774947e-07,3.770451770451770682e-05
3.809523809523809222e-05,6.075702075702075079e-05,2.207570207570207368e-05,1.621489621489621464e-05,1.953601953601946625e-07,2.363858363858363564e-05,6.114774114774113620e-05,3.028083028083027904e-05,2.285714285714285804e-05,1.953601953601946625e-07,1.347985347985347952e-05,2.090354090354090390e-05,1.953601953601946625e-07,-5.665445665445665488e-06,-1.230769230769230805e-05,3.262515262515262198e-05,4.434676434676434683e-05,1.953601953601946625e-07,-1.269841269841269854e-05,2.871794871794871708e-05,2.715506715506715174e-05,1.543345543345543027e-05,1.953601953601946625e-07,-2.168498168498168488e-05,-7.619047619047618784e-06,-2.715506715506715174e-05,1.934065934065933856e-05,2.715506715506715174e-05
3.145299145299145221e-05,4.669108669108668638e-05,2.559218559218558978e-05,1.934065934065933856e-05,1.953601953601946625e-07,8.791208791208790252e-06,6.036630036630036538e-05,3.457875457875457612e-05,2.012210012210011953e-05,1.953601953601946625e-07,5.274725274725273304e-06,2.598290598290598196e-05,1.953601953601946625e-07,-1.582417582417582245e-05,-1.426129426129426219e-05,3.575091575091575267e-05,4.317460317460317028e-05,1.953601953601946625e-07,-2.715506715506715174e-05,2.363858363858363564e-05,3.575091575091575267e-05,1.621489621489621464e-05,1.953601953601946625e-07,-2.520146520146520098e-05,1.113553113553113488e-05,-3.731379731379731463e-05,5.274725274725273304e-06,3.575091575091575267e-05
2.481074481074480880e-05,2.793650793650793610e-05,2.989010989010989025e-05,1.738705738705738441e-05,1.953601953601946625e-07,-4.884004884004884509e-06,5.372405372405372536e-05,3.653235653235653026e-05,1.660561660561660343e-05,1.953601953601946625e-07,-9.768009768009774947e-07,3.340659340659340635e-05,1.953601953601946625e-07,-2.363858363858363902e-05,-1.074481074481074439e-05,3.848595848595848441e-05,3.731379731379731463e-05,1.953601953601946625e-07,-2.793650793650793610e-05,2.148962148962148540e-06,5.489621489621488836e-05,1.191697191697191417e-05,1.953601953601946625e-07,-2.949938949938950145e-05,2.442002442002441662e-05,-4.239316239316239269e-05,-1.387057387057387001e-05,5.489621489621488836e-05
1.660561660561660343e-05,2.168498168498168149e-05,1.894993894993894976e-05,2.168498168498168149e-05,1.953601953601946625e-07,-1.152625152625152537e-05,4.043956043956043855e-05,3.809523809523809222e-05,1.387057387057386831e-05,1.953601953601946625e-07,-1.074481074481074439e-05,3.262515262515262198e-05,1.953601953601946625e-07,-2.051282051282051511e-05,-1.465201465201465268e-05,3.614163614163613808e-05,3.653235653235653026e-05,1.953601953601946625e-07,-2.949938949938950145e-05,-1.758241758241758898e-06,5.528693528693528732e-05,1.308913308913308903e-05,1.953601953601946625e-07,-1.855921855921856096e-05,1.582417582417582245e-05,-4.004884004884004637e-05,-1.426129426129426219e-05,5.528693528693528732e-05
6.056166056166055131e-06,1.191697191697191417e-05,1.269841269841269684e-05,2.598290598290598196e-05,1.953601953601946625e-07,-1.816849816849816539e-05,2.793650793650793610e-05,3.887667887667886981e-05,9.572649572649571232e-06,1.953601953601946625e-07,-1.660561660561660682e-05,2.637362637362637076e-05,1.953601953601946625e-07,-1.230769230769230805e-05,-1.973137973137973074e-05,3.340659340659340635e-05,3.340659340659340635e-05,1.953601953601946625e-07,-2.442002442002442000e-05,-1.269841269841269854e-05,5.841269841269841124e-05,1.347985347985347952e-05,1.953601953601946625e-07,-1.230769230769230805e-05,2.598290598290598196e-05,-3.926739926739926877e-05,-2.481074481074480880e-05,5.841269841269841124e-05
-1.367521367521368196e-06,1.953601953601946625e-07,1.387057387057386831e-05,3.028083028083027904e-05,1.953601953601946625e-07,-2.012210012210011953e-05,1.426129426129426050e-05,3.926739926739926877e-05,1.113553113553113488e-05,1.953601953601946625e-07,-1.934065934065934194e-05,2.285714285714285804e-05,1.953601953601946625e-07,-9.572649572649572926e-06,-2.285714285714285804e-05,3.614163614163613808e-05,3.301587301587300739e-05,1.953601953601946625e-07,-2.246642246642246586e-05,-8.400488400488399763e-06,5.137973137973137904e-05,1.582417582417582245e-05,1.953601953601946625e-07,-1.347985347985347952e-05,4.278388278388277810e-05,-3.223443223443222980e-05,-3.106227106227106002e-05,5.137973137973137904e-05
-1.582417582417582245e-05,-1.504273504273504148e-05,2.285714285714285804e-05,4.317460317460317028e-05,1.953601953601946625e-07,-2.481074481074480880e-05,-1.953601953601960389e-07,4.161172161172160832e-05,1.894993894993894976e-05,1.953601953601946625e-07,-2.402930402930402782e-05,2.402930402930402782e-05,1.953601953601946625e-07,-1.074481074481074439e-05,-2.793650793650793610e-05,3.536019536019536049e-05,3.965811965811965418e-05,1.953601953601946625e-07,-2.754578754578754731e-05,9.963369963369963416e-06,3.262515262515262198e-05,1.973137973137973074e-05,1.953601953601946625e-07,-2.246642246642246586e-05,4.317460317460317028e-05,-1.621489621489621464e-05,-6.837606837606837804e-06,3.262515262515262198e-05
-2.285714285714285804e-05,-2.637362637362637415e-05,2.559218559218558978e-05,5.528693528693528732e-05,1.953601953601946625e-07,-2.949938949938950145e-05,-9.572649572649572926e-06,4.630036630036629420e-05,2.481074481074480880e-05,1.953601953601946625e-07,-2.989010989010989025e-05,2.832722832722832490e-05,1.953601953601946625e-07,-1.426129426129426219e-05,-2.598290598290598196e-05,3.575091575091575267e-05,4.043956043956043855e-05,1.953601953601946625e-07,-2.715506715506715174e-05,-2.539682539682540300e-06,4.395604395604395465e-05,2.090354090354090390e-05,1.953601953601946625e-07,-2.520146520146520098e-05,4.903540903540903271e-05,-1.152625152625152537e-05,-1.230769230769230805e-05,4.395604395604395465e-05
-3.067155067155067461e-05,-3.965811965811965418e-05,2.324786324786324684e-05,7.052503052503052150e-05,1.953601953601946625e-07,-3.809523809523809222e-05,-2.207570207570207368e-05,4.864468864468864053e-05,3.536019536019536049e-05,1.953601953601946625e-07,-3.731379731379731463e-05,3.457875457875457612e-05,1.953601953601946625e-07,-2.168498168498168488e-05,-2.832722832722832829e-05,3.926739926739926877e-05,4.551892551892551661e-05,1.953601953601946625e-07,-2.715506715506715174e-05,-2.285714285714285804e-05,5.958485958485958101e-05,2.481074481074480880e-05,1.953601953601946625e-07,-2.285714285714285804e-05,6.583638583638582885e-05,-8.009768009768009273e-06,-3.653235653235653026e-05,5.958485958485958101e-05
-4.200244200244200051e-05,-6.661782661782661322e-05,2.559218559218558978e-05,8.967032967032966396e-05,1.953601953601946625e-07,-5.294261294261294099e-05,-3.731379731379731463e-05,5.098901098901098008e-05,4.669108669108668638e-05,1.953601953601946625e-07,-4.590964590964590879e-05,4.043956043956043855e-05,1.953601953601946625e-07,-3.145299145299145221e-05,-3.379731379731379853e-05,3.965811965811965418e-05,5.059829059829059467e-05,1.953601953601946625e-07,-3.184371184371184439e-05,-2.715506715506715174e-05,5.606837606837606491e-05,2.754578754578754392e-05,1.953601953601946625e-07,-2.520146520146520098e-05,7.677655677655676933e-05,3.321123321123320433e-06,-3.692307692307692245e-05,5.606837606837606491e-05
-5.802197802197801905e-05,-7.599511599511598497e-05,1.230769230769230635e-05,1.084249084249084210e-04,1.953601953601946625e-07,-6.583638583638584240e-05,-5.177045177045177122e-05,5.098901098901098008e-05,5.372405372405372536e-05,1.953601953601946625e-07,-5.450549450549450295e-05,3.887667887667886981e-05,1.953601953601946625e-07,-3.926739926739926877e-05,-3.848595848595848441e-05,3.809523809523809222e-05,5.137973137973137904e-05,1.953601953601946625e-07,-3.379731379731379853e-05,-2.989010989010989025e-05,4.864468864468864053e-05,2.676434676434676294e-05,1.953601953601946625e-07,-1.191697191697191756e-05,6.857142857142856736e-05,1.816849816849816539e-05,-2.676434676434676294e-05,4.864468864468864053e-05
-6.896214896214895277e-05,-9.787545787545787949e-05,4.493284493284492325e-06,1.240537240537240406e-04,1.953601953601946625e-07,-7.990231990231989325e-05,-6.427350427350427367e-05,5.020757020757020249e-05,5.645909645909645710e-05,1.953601953601946625e-07,-5.958485958485958101e-05,3.614163614163613808e-05,1.953601953601946625e-07,-4.981684981684981708e-05,-4.043956043956043855e-05,3.965811965811965418e-05,4.825396825396824834e-05,1.953601953601946625e-07,-4.004884004884004637e-05,-2.754578754578754731e-05,4.161172161172160832e-05,2.402930402930402782e-05,1.953601953601946625e-07,-4.102564102564102683e-06,8.967032967032966396e-05,2.871794871794871708e-05,-3.536019536019536049e-05,4.161172161172160832e-05
-8.263736263736263176e-05,-1.248351648351648385e-04,9.572649572649571232e-06,1.389010989010988758e-04,1.953601953601946625e-07,-9.631257631257631076e-05,-7.560439560439559956e-05,4.981684981684981708e-05,6.349206349206348930e-05,1.953601953601946625e-07,-5.958485958485958101e-05,3.223443223443222980e-05,1.953601953601946625e-07,-6.075702075702075079e-05,-4.434676434676434683e-05,3.496947496947496153e-05,4.864468864468864053e-05,1.953601953601946625e-07,-4.669108669108668638e-05,-6.446886446886447315e-06,1.347985347985347952e-05,1.777777777777777660e-05,1.953601953601946625e-07,-9.181929181929182436e-06,1.064713064713064669e-04,4.786324786324786294e-05,-1.738705738705738780e-05,1.347985347985347952e-05
-9.357753357753357225e-05,-1.221001221001221000e-04,-2.148962148962149811e-06,1.498412698412698299e-04,1.953601953601946625e-07,-1.033455433455433430e-04,-7.990231990231989325e-05,5.098901098901098008e-05,6.388278388278387471e-05,1.953601953601946625e-07,-5.684981684981684928e-05,3.067155067155066784e-05,1.953601953601946625e-07,-6.661782661782661322e-05,-4.083028083028083073e-05,2.324786324786324684e-05,4.630036630036629420e-05,1.953601953601946625e-07,-4.747252747252747075e-05,-1.191697191697191756e-05,1.465201465201465099e-05,6.837606837606836957e-06,1.953601953601946625e-07,2.539682539682539030e-06,9.006105006105004937e-05,6.036630036630036538e-05,-7.619047619047618784e-06,1.465201465201465099e-05
-9.826617826617826490e-05,-1.306959706959706874e-04,-4.884004884004884509e-06,1.599999999999999860e-04,1.953601953601946625e-07,-1.068620268620268658e-04,-8.068376068376067762e-05,4.864468864468864053e-05,6.427350427350427367e-05,1.953601953601946625e-07,-5.450549450549450295e-05,2.793650793650793610e-05,1.953601953601946625e-07,-7.286935286935286105e-05,-3.418803418803418394e-05,1.347985347985347952e-05,3.887667887667886981e-05,1.953601953601946625e-07,-5.137973137973137904e-05,-3.457875457875457612e-05,2.754578754578754392e-05,3.711843711843710922e-06,1.953601953601946625e-07,5.274725274725273304e-06,9.787545787545786594e-05,6.583638583638582885e-05,-2.871794871794871708e-05,2.754578754578754392e-05
-9.592185592185591180e-05,-1.385103785103785040e-04,-5.860805860805867933e-07,1.549206349206349079e-04,1.953601953601946625e-07,-1.068620268620268658e-04,-8.068376068376067762e-05,4.200244200244200051e-05,6.505494505494504448e-05,1.953601953601946625e-07,-5.098901098901099363e-05,2.442002442002441662e-05,1.953601953601946625e-07,-7.521367521367521415e-05,-3.145299145299145221e-05,5.274725274725273304e-06,3.106227106227106002e-05,1.953601953601946625e-07,-5.333333333333333318e-05,-3.887667887667887659e-05,2.012210012210011953e-05,1.758241758241757415e-06,1.953601953601946625e-07,9.768009768009760124e-07,1.080341880341880356e-04,6.192918192918192056e-05,-3.223443223443222980e-05,2.012210012210011953e-05
-9.865689865689866386e-05,-1.408547008547008706e-04,4.884004884004883662e-06,1.525763125763125684e-04,1.953601953601946625e-07,-9.982905982905982008e-05,-8.068376068376067762e-05,3.184371184371184439e-05,6.661782661782661322e-05,1.953601953601946625e-07,-4.708180708180708534e-05,1.934065934065933856e-05,1.953601953601946625e-07,-7.326007326007324646e-05,-3.184371184371184439e-05,-7.619047619047618784e-06,2.637362637362637076e-05,1.953601953601946625e-07,-5.567765567765567950e-05,-5.137973137973137904e-05,1.816849816849816539e-05,1.367521367521366926e-06,1.953601953601946625e-07,-4.493284493284494019e-06,1.056898656898656825e-04,7.247863247863247564e-05,-3.809523809523809222e-05,1.816849816849816539e-05
